time (s)	coil I (A)	last det (V)	int current (uC)
8823.133649	1.165770	0.279464	515.270447
8823.134578	0.673422	0.279464	1140.879150
8823.135508	0.086862	0.279464	1221.660400
8823.136410	0.084957	0.279464	1298.291870
8823.137308	0.084921	0.279464	1374.550659
8823.138237	0.084979	0.279464	1453.496338
8823.139141	0.085016	0.279464	1530.350708
8823.140046	0.084924	0.279464	1607.207275
8823.140931	0.084939	0.279464	1682.378296
8823.141872	0.084932	0.279464	1762.298950
8823.142780	0.084943	0.279464	1839.426880
8823.143671	0.084954	0.279464	1915.120605
8824.151525	1.189497	0.283004	549.547668
8824.152442	0.632014	0.283004	1129.104736
8824.153330	0.087158	0.283004	1206.501221
8824.154295	0.084858	0.283004	1288.389526
8824.155232	0.084913	0.283004	1367.953369
8824.156131	0.084862	0.283004	1444.244385
8824.157056	0.084807	0.283004	1522.690918
8824.157999	0.084957	0.283004	1602.805664
8824.158915	0.084935	0.283004	1680.606445
8824.159800	0.084910	0.283004	1755.751465
8824.160743	0.084880	0.283004	1835.793701
8824.161678	0.084811	0.283004	1915.091797
8825.204188	1.177028	0.257312	523.777283
8825.205091	0.674187	0.257312	1132.568115
8825.205977	0.087799	0.257312	1210.358154
8825.206943	0.084851	0.257312	1292.324341
8825.207881	0.084884	0.257312	1371.945557
8825.208780	0.085020	0.257312	1448.378174
8825.209698	0.084888	0.257312	1526.305054
8825.210632	0.084891	0.257312	1605.593628
8825.211550	0.084924	0.257312	1683.554199
8825.212441	0.084855	0.257312	1759.159790
8825.213393	0.084880	0.257312	1839.965942
8825.214322	0.084840	0.257312	1918.782349
8826.222082	1.211964	0.272555	597.498291
8826.223009	0.576152	0.272555	1131.591553
8826.223931	0.086107	0.272555	1210.982422
8826.224818	0.084902	0.272555	1286.290771
8826.225782	0.084899	0.272555	1368.133057
8826.226675	0.084939	0.272555	1443.983521
8826.227567	0.084899	0.272555	1519.713135
8826.228498	0.084990	0.272555	1598.838989
8826.229415	0.084957	0.272555	1676.744873
8826.230319	0.084895	0.272555	1753.489990
8826.231211	0.084873	0.272555	1829.196777
8826.232152	0.085009	0.272555	1909.189819
8827.267534	1.169850	0.287379	519.413330
8827.268522	0.552883	0.287379	1065.662109
8827.269418	0.086257	0.287379	1142.948730
8827.270307	0.084943	0.287379	1218.462769
8827.271205	0.084884	0.287379	1294.688599
8827.272134	0.084976	0.287379	1373.630859
8827.273042	0.084895	0.287379	1450.715576
8827.273933	0.084858	0.287379	1526.324463
8827.274867	0.084932	0.287379	1605.650635
8827.275781	0.084877	0.287379	1683.227905
8827.276685	0.084869	0.287379	1759.949829
8827.277574	0.084994	0.287379	1835.509399
8828.291552	1.187472	0.274021	537.924744
8828.292479	0.631267	0.274021	1123.109375
8828.293379	0.086818	0.274021	1201.245239
8828.294311	0.084917	0.274021	1280.387817
8828.295219	0.084950	0.274021	1357.522339
8828.296123	0.084888	0.274021	1434.260864
8828.297015	0.084888	0.274021	1509.980713
8828.297972	0.084976	0.274021	1591.302368
8828.298865	0.084932	0.274021	1667.146362
8828.299768	0.084968	0.274021	1743.872681
8828.300673	0.084939	0.274021	1820.742432
8828.301609	0.084880	0.274021	1900.190430
8829.337092	1.206980	0.274541	581.764343
8829.338032	0.571018	0.274541	1118.521362
8829.338919	0.086316	0.274541	1195.083618
8829.339845	0.084976	0.274541	1273.770996
8829.340777	0.084888	0.274541	1352.886353
8829.341688	0.084935	0.274541	1430.262451
8829.342582	0.084917	0.274541	1506.178223
8829.343536	0.084910	0.274541	1587.182007
8829.344474	0.084862	0.274541	1666.782593
8829.345378	0.084961	0.274541	1743.587280
8829.346300	0.084921	0.274541	1821.884155
8829.347244	0.084946	0.274541	1902.073486
8830.361039	1.162288	0.261030	506.757385
8830.361989	0.655789	0.261030	1129.756470
8830.362903	0.086536	0.261030	1208.850098
8830.363829	0.084862	0.261030	1287.432373
8830.364722	0.084976	0.261030	1363.315552
8830.365670	0.084946	0.261030	1443.844604
8830.366565	0.084869	0.261030	1519.802734
8830.367483	0.084932	0.261030	1597.770020
8830.368370	0.084924	0.261030	1673.097900
8830.369321	0.084946	0.261030	1753.881836
8830.370239	0.084899	0.261030	1831.818848
8830.371142	0.084939	0.261030	1908.518677
8831.403464	1.161185	0.293478	508.599152
8831.404415	0.639972	0.293478	1117.212402
8831.405322	0.086646	0.293478	1195.799927
8831.406222	0.084917	0.293478	1272.225220
8831.407112	0.084825	0.293478	1347.719849
8831.408070	0.085034	0.293478	1429.182617
8831.408986	0.084888	0.293478	1506.939697
8831.409883	0.084902	0.293478	1583.097046
8831.410776	0.084902	0.293478	1658.914795
8831.411727	0.084891	0.293478	1739.646484
8831.412641	0.084906	0.293478	1817.250610
8831.413535	0.084917	0.293478	1893.166382
8832.422349	1.163873	0.283133	512.104187
8832.423321	0.653719	0.283133	1147.519531
8832.424228	0.086312	0.283133	1225.804687
8832.425139	0.084968	0.283133	1303.210815
8832.426038	0.085023	0.283133	1379.646729
8832.426956	0.084965	0.283133	1457.644287
8832.427872	0.084976	0.283133	1535.481934
8832.428781	0.084954	0.283133	1612.704712
8832.429679	0.084921	0.283133	1688.963501
8832.430621	0.084983	0.283133	1769.017456
8832.431518	0.084924	0.283133	1845.194580
8832.432419	0.084946	0.283133	1921.731201
8833.477115	1.183473	0.272261	560.966125
8833.478021	0.624467	0.272261	1126.732788
8833.478946	0.087001	0.272261	1207.208496
8833.479883	0.084913	0.272261	1286.772339
8833.480803	0.084888	0.272261	1364.869019
8833.481690	0.084994	0.272261	1440.258545
8833.482628	0.084899	0.272261	1519.893555
8833.483566	0.084869	0.272261	1599.500977
8833.484487	0.084822	0.272261	1677.621826
8833.485381	0.084906	0.272261	1753.527832
8833.486330	0.084844	0.272261	1834.044556
8833.487273	0.084928	0.272261	1914.131592
8834.493901	1.155894	0.274557	505.125488
8834.494861	0.599022	0.274557	1080.186768
8834.495772	0.086437	0.274557	1158.930664
8834.496694	0.084972	0.274557	1237.274780
8834.497588	0.084921	0.274557	1313.193848
8834.498536	0.084891	0.274557	1393.670898
8834.499436	0.084943	0.274557	1470.119263
8834.500325	0.084888	0.274557	1545.584473
8834.501277	0.084987	0.274557	1626.491699
8834.502193	0.084950	0.274557	1704.305908
8834.503112	0.084888	0.274557	1782.317749
8834.503997	0.084803	0.274557	1857.368774
8835.540464	1.208522	0.277663	563.171143
8835.541393	0.602399	0.277663	1122.799561
8835.542295	0.086656	0.277663	1200.963745
8835.543181	0.084899	0.277663	1276.183960
8835.544140	0.084935	0.277663	1357.636963
8835.545052	0.084895	0.277663	1435.061279
8835.545949	0.084990	0.277663	1511.297485
8835.546883	0.084994	0.277663	1590.681763
8835.547782	0.084935	0.277663	1667.038574
8835.548677	0.084895	0.277663	1743.019653
8835.549563	0.084946	0.277663	1818.282104
8835.550510	0.085005	0.277663	1898.781738
8836.562407	1.203574	0.289764	554.847717
8836.563367	0.555150	0.289764	1087.791870
8836.564291	0.085917	0.289764	1167.178955
8836.565180	0.084924	0.289764	1242.676636
8836.566128	0.084818	0.289764	1323.084229
8836.567069	0.084847	0.289764	1402.925659
8836.567965	0.084961	0.289764	1479.050659
8836.568891	0.084990	0.289764	1557.751587
8836.569823	0.084943	0.289764	1636.918091
8836.570749	0.084862	0.289764	1715.500366
8836.571650	0.084935	0.289764	1792.027100
8836.572576	0.084917	0.289764	1870.660278
8837.605869	1.194075	0.286783	557.632935
8837.606785	0.624240	0.286783	1129.436279
8837.607674	0.087122	0.286783	1206.887329
8837.608647	0.084880	0.286783	1289.475952
8837.609573	0.084950	0.286783	1368.139648
8837.610466	0.085034	0.286783	1444.075195
8837.611407	0.084943	0.286783	1524.006226
8837.612319	0.084990	0.286783	1601.517334
8837.613239	0.084961	0.286783	1679.681396
8837.614137	0.084965	0.286783	1755.979614
8837.615090	0.084902	0.286783	1836.891602
8837.616018	0.084913	0.286783	1915.691162
8838.631894	1.167242	0.274513	526.426331
8838.632787	0.676084	0.274513	1130.169312
8838.633737	0.086700	0.274513	1212.534668
8838.634648	0.084844	0.274513	1289.827271
8838.635542	0.084939	0.274513	1365.762695
8838.636476	0.084972	0.274513	1445.126465
8838.637385	0.084994	0.274513	1522.385864
8838.638287	0.084891	0.274513	1598.957886
8838.639179	0.084968	0.274513	1674.749512
8838.640128	0.085038	0.274513	1755.450439
8838.641026	0.084917	0.274513	1831.705933
8838.641930	0.084935	0.274513	1908.487427
8839.678411	1.158918	0.281341	505.288452
8839.679394	0.607028	0.281341	1101.996582
8839.680316	0.086118	0.281341	1181.397583
8839.681202	0.084924	0.281341	1256.640503
8839.682121	0.084946	0.281341	1334.706177
8839.683063	0.084957	0.281341	1414.735962
8839.683981	0.084873	0.281341	1492.649414
8839.684878	0.084954	0.281341	1568.852783
8839.685806	0.084946	0.281341	1647.682983
8839.686735	0.084899	0.281341	1726.553833
8839.687656	0.084924	0.281341	1804.769165
8839.688543	0.084895	0.281341	1880.071045
8840.695277	1.179013	0.277623	557.672913
8840.696191	0.622247	0.277623	1126.406982
8840.697085	0.086920	0.277623	1204.113647
8840.698008	0.084965	0.277623	1282.536011
8840.698952	0.084906	0.277623	1362.687256
8840.699874	0.084924	0.277623	1440.987427
8840.700768	0.084946	0.277623	1516.929443
8840.701718	0.084880	0.277623	1597.565796
8840.702646	0.084847	0.277623	1676.304199
8840.703553	0.084921	0.277623	1753.327271
8840.704457	0.084921	0.277623	1830.095581
8840.705394	0.084998	0.277623	1909.738281
8841.745863	1.159329	0.290775	504.307983
8841.746836	0.602897	0.290775	1090.926514
8841.747758	0.086228	0.290775	1170.428711
8841.748657	0.084943	0.290775	1246.792114
8841.749546	0.084888	0.290775	1322.257324
8841.750509	0.085049	0.290775	1404.159302
8841.751412	0.084829	0.290775	1480.760010
8841.752302	0.084924	0.290775	1556.342651
8841.753240	0.084972	0.290775	1636.046265
8841.754144	0.084902	0.290775	1712.797974
8841.755041	0.084866	0.290775	1788.922485
8841.755931	0.085005	0.290775	1864.576782
8842.762752	1.190211	0.294594	584.393677
8842.763668	0.586769	0.294594	1121.873901
8842.764568	0.086689	0.294594	1199.894409
8842.765458	0.084950	0.294594	1275.499878
8842.766408	0.085023	0.294594	1356.271973
8842.767300	0.084906	0.294594	1432.008179
8842.768200	0.084954	0.294594	1508.466431
8842.769091	0.084979	0.294594	1584.182983
8842.770053	0.084965	0.294594	1665.918945
8842.770969	0.084928	0.294594	1743.713013
8842.771867	0.084851	0.294594	1819.909302
8842.772802	0.084987	0.294594	1899.371704
8843.814355	1.167832	0.275037	513.846069
8843.815301	0.611942	0.275037	1092.743286
8843.816247	0.086294	0.275037	1174.377319
8843.817170	0.084928	0.275037	1252.765869
8843.818056	0.084924	0.275037	1328.008789
8843.819006	0.084902	0.275037	1408.666016
8843.819927	0.084910	0.275037	1486.867798
8843.820827	0.084987	0.275037	1563.355713
8843.821754	0.085023	0.275037	1642.172241
8843.822697	0.084928	0.275037	1722.259277
8843.823621	0.084891	0.275037	1800.698853
8843.824518	0.084957	0.275037	1876.905518
8844.835326	1.194719	0.280273	573.465210
8844.836227	0.625049	0.280273	1136.634277
8844.837118	0.087070	0.280273	1214.213867
8844.838078	0.084910	0.280273	1295.727173
8844.839016	0.084877	0.280273	1375.341553
8844.839917	0.084954	0.280273	1451.884766
8844.840843	0.084888	0.280273	1530.490723
8844.841784	0.084847	0.280273	1610.332153
8844.842698	0.084873	0.280273	1687.906128
8844.843586	0.084891	0.280273	1763.289673
8844.844532	0.084917	0.280273	1843.621094
8844.845463	0.084899	0.280273	1922.661743
8845.877720	1.163167	0.296117	523.424927
8845.878617	0.684100	0.296117	1137.062988
8845.879505	0.087986	0.296117	1215.194458
8845.880457	0.084924	0.296117	1296.042358
8845.881357	0.084880	0.296117	1372.434692
8845.882246	0.084924	0.296117	1447.932373
8845.883159	0.084957	0.296117	1525.498413
8845.884083	0.084888	0.296117	1603.934692
8845.884978	0.084935	0.296117	1679.951782
8845.885868	0.084844	0.296117	1755.462769
8845.886805	0.085005	0.296117	1835.112305
8845.887699	0.084880	0.296117	1910.995361
8846.902792	1.196536	0.288201	595.874695
8846.903727	0.543560	0.288201	1104.102905
8846.904629	0.086012	0.288201	1181.685669
8846.905519	0.084965	0.288201	1257.304199
8846.906468	0.084939	0.288201	1337.911255
8846.907380	0.084866	0.288201	1415.308838
8846.908279	0.084990	0.288201	1491.715088
8846.909167	0.084884	0.288201	1567.092163
8846.910104	0.084979	0.288201	1646.717773
8846.911009	0.084935	0.288201	1723.584229
8846.911902	0.084899	0.288201	1799.398804
8846.912834	0.084917	0.288201	1878.541382
8847.948236	1.153766	0.292314	505.349457
8847.949189	0.613488	0.292314	1090.003052
8847.950091	0.086766	0.292314	1168.266357
8847.950992	0.084932	0.292314	1244.789795
8847.951882	0.084822	0.292314	1320.281128
8847.952833	0.085016	0.292314	1401.131226
8847.953742	0.084913	0.292314	1478.317505
8847.954632	0.084877	0.292314	1553.857788
8847.955564	0.084968	0.292314	1633.048218
8847.956473	0.085016	0.292314	1710.327637
8847.957374	0.084961	0.292314	1786.877441
8847.958263	0.085005	0.292314	1862.446777
8848.971254	1.181788	0.271343	553.076965
8848.972189	0.604127	0.271343	1117.935913
8848.973116	0.086261	0.271343	1197.899902
8848.974004	0.084873	0.271343	1273.267212
8848.974953	0.084939	0.271343	1353.874268
8848.975886	0.084946	0.271343	1433.129150
8848.976789	0.084833	0.271343	1509.733154
8848.977710	0.084840	0.271343	1587.870850
8848.978651	0.084818	0.271343	1667.684692
8848.979569	0.084961	0.271343	1745.678833
8848.980469	0.084910	0.271343	1822.097534
8848.981414	0.084858	0.271343	1902.288696
8850.016767	1.197978	0.298260	590.603394
8850.017687	0.588098	0.298260	1131.653687
8850.018617	0.086023	0.298260	1211.655029
8850.019509	0.084910	0.298260	1287.394409
8850.020439	0.084902	0.298260	1366.353638
8850.021364	0.084935	0.298260	1444.918823
8850.022289	0.084884	0.298260	1523.436523
8850.023186	0.084899	0.298260	1599.590576
8850.024114	0.084906	0.298260	1678.383301
8850.025059	0.084954	0.298260	1758.664429
8850.025964	0.084946	0.298260	1835.540771
8850.026886	0.084943	0.298260	1913.857910
8851.035599	1.165972	0.291122	518.857361
8851.036561	0.580734	0.291122	1077.523193
8851.037482	0.086162	0.291122	1156.878540
8851.038380	0.084840	0.291122	1233.064941
8851.039299	0.084869	0.291122	1311.059937
8851.040235	0.084924	0.291122	1390.549072
8851.041138	0.084858	0.291122	1467.176270
8851.042026	0.084906	0.291122	1542.572754
8851.042974	0.084917	0.291122	1623.074097
8851.043873	0.084829	0.291122	1699.335449
8851.044791	0.084943	0.291122	1777.312744
8851.045678	0.084954	0.291122	1852.666626
8852.087247	1.159640	0.287681	510.241577
8852.088142	0.684818	0.287681	1123.153809
8852.089096	0.086708	0.287681	1205.873047
8852.090008	0.084873	0.287681	1283.277222
8852.090907	0.084866	0.287681	1359.571533
8852.091843	0.084972	0.287681	1439.105225
8852.092753	0.085082	0.287681	1516.529663
8852.093655	0.084902	0.287681	1593.111572
8852.094544	0.084961	0.287681	1668.641846
8852.095493	0.084990	0.287681	1749.297607
8852.096390	0.084965	0.287681	1825.510864
8852.097286	0.084928	0.287681	1901.606323
8853.104122	1.178796	0.283565	571.716248
8853.105071	0.537733	0.283565	1082.025024
8853.105990	0.085844	0.283565	1160.915161
8853.106882	0.084957	0.283565	1236.697021
8853.107804	0.084957	0.283565	1315.027588
8853.108747	0.084983	0.283565	1395.166504
8853.109662	0.084906	0.283565	1472.855469
8853.110549	0.084950	0.283565	1548.206055
8853.111487	0.084987	0.283565	1627.923462
8853.112427	0.084906	0.283565	1707.735107
8853.113324	0.084928	0.283565	1783.915527
8853.114241	0.084939	0.283565	1861.804565
8854.154727	1.187468	0.293970	552.172729
8854.155637	0.635537	0.293970	1130.511475
8854.156526	0.087290	0.293970	1208.112305
8854.157489	0.084884	0.293970	1289.855591
8854.158428	0.084961	0.293970	1369.633911
8854.159329	0.084954	0.293970	1446.177124
8854.160259	0.084888	0.293970	1525.122681
8854.161188	0.085001	0.293970	1604.088867
8854.162123	0.085005	0.293970	1683.568481
8854.163013	0.084983	0.293970	1759.203247
8854.163929	0.084921	0.293970	1836.990601
8854.164858	0.085001	0.293970	1915.956787
8855.170528	1.174651	0.292777	532.116821
8855.171432	0.672682	0.292777	1140.221191
8855.172320	0.087817	0.292777	1218.203003
8855.173262	0.084939	0.292777	1298.215454
8855.174179	0.084880	0.292777	1376.050781
8855.175071	0.084902	0.292777	1451.783691
8855.175987	0.084880	0.292777	1529.534058
8855.176924	0.084906	0.292777	1609.090942
8855.177850	0.084917	0.292777	1687.724121
8855.178735	0.084910	0.292777	1762.869141
8855.179680	0.084906	0.292777	1843.105347
8855.180596	0.084943	0.292777	1920.912842
8856.224208	1.166733	0.293341	516.862915
8856.225106	0.688788	0.293341	1135.394409
8856.226086	0.086510	0.293341	1220.174194
8856.226983	0.084880	0.293341	1296.311890
8856.227871	0.084939	0.293341	1371.737671
8856.228789	0.084983	0.293341	1449.751953
8856.229725	0.084939	0.293341	1529.254883
8856.230632	0.084917	0.293341	1606.274536
8856.231523	0.085005	0.293341	1682.013916
8856.232460	0.084932	0.293341	1761.594849
8856.233367	0.084943	0.293341	1838.637817
8856.234296	0.085009	0.293341	1917.610718
8857.240005	1.154385	0.295255	502.157349
8857.240899	0.704425	0.295255	1131.913330
8857.241866	0.086744	0.295255	1215.795166
8857.242776	0.084928	0.295255	1293.079590
8857.243675	0.084943	0.295255	1369.442993
8857.244605	0.085012	0.295255	1448.504395
8857.245512	0.085045	0.295255	1525.640381
8857.246407	0.084906	0.295255	1601.631226
8857.247291	0.084957	0.295255	1676.733398
8857.248235	0.084946	0.295255	1756.922729
8857.249139	0.084921	0.295255	1833.691040
8857.250045	0.084928	0.295255	1910.635742
8858.290639	1.169304	0.294006	521.509705
8858.291615	0.568125	0.294006	1075.999634
8858.292521	0.086265	0.294006	1154.155396
8858.293429	0.084888	0.294006	1231.233398
8858.294336	0.084965	0.294006	1308.296265
8858.295254	0.084902	0.294006	1386.236572
8858.296156	0.084946	0.294006	1462.858154
8858.297048	0.084888	0.294006	1538.578003
8858.297995	0.084979	0.294006	1619.053345
8858.298890	0.084983	0.294006	1695.113037
8858.299786	0.084902	0.294006	1771.185547
8858.300676	0.084968	0.294006	1846.807251
8859.306484	1.176746	0.294131	561.307617
8859.307427	0.585432	0.294131	1113.370117
8859.308354	0.086202	0.294131	1193.279785
8859.309246	0.084917	0.294131	1269.025757
8859.310197	0.084873	0.294131	1349.739990
8859.311125	0.084891	0.294131	1428.519165
8859.312025	0.084902	0.294131	1504.931274
8859.312947	0.084902	0.294131	1583.211182
8859.313872	0.084935	0.294131	1661.776367
8859.314798	0.084899	0.294131	1740.392578
8859.315699	0.084902	0.294131	1816.889648
8859.316623	0.084862	0.294131	1895.302246
8860.360173	1.196492	0.294876	561.154602
8860.361087	0.628682	0.294876	1135.769531
8860.361975	0.087187	0.294876	1213.192017
8860.362932	0.084833	0.294876	1294.376953
8860.363850	0.084844	0.294876	1372.263550
8860.364739	0.084880	0.294876	1447.722168
8860.365670	0.084932	0.294876	1526.793579
8860.366583	0.084899	0.294876	1604.306030
8860.367499	0.084833	0.294876	1682.012817
8860.368399	0.084968	0.294876	1758.484253
8860.369343	0.084899	0.294876	1838.628662
8860.370247	0.084888	0.294876	1915.367187
8861.374980	1.179265	0.296991	582.557007
8861.375914	0.553726	0.296991	1099.736694
8861.376819	0.086060	0.296991	1177.620605
8861.377706	0.084884	0.296991	1252.912720
8861.378653	0.084976	0.296991	1333.384644
8861.379566	0.084727	0.296991	1410.739990
8861.380484	0.084836	0.296991	1488.619873
8861.381378	0.084950	0.296991	1564.565186
8861.382322	0.084928	0.296991	1644.737183
8861.383216	0.084844	0.296991	1720.587524
8861.384105	0.084895	0.296991	1796.059204
8861.385043	0.084910	0.296991	1875.704468
8862.426575	1.161097	0.295657	507.399567
8862.427536	0.645088	0.295657	1127.328979
8862.428439	0.086580	0.295657	1205.510376
8862.429341	0.084873	0.295657	1282.065918
8862.430230	0.084939	0.295657	1357.576660
8862.431166	0.085027	0.295657	1437.161743
8862.432066	0.084957	0.295657	1513.623291
8862.432978	0.084910	0.295657	1591.060913
8862.433866	0.084957	0.295657	1666.502930
8862.434804	0.084987	0.295657	1746.220337
8862.435707	0.084979	0.295657	1822.956543
8862.436603	0.084965	0.295657	1899.084839
8863.443444	1.204515	0.289466	580.576416
8863.444420	0.526501	0.289466	1094.441895
8863.445333	0.085587	0.289466	1172.583008
8863.446222	0.084844	0.289466	1248.009155
8863.447162	0.084913	0.289466	1327.827637
8863.448092	0.084910	0.289466	1406.793579
8863.448987	0.084965	0.289466	1482.836914
8863.449918	0.084884	0.289466	1561.863892
8863.450844	0.084811	0.289466	1640.398682
8863.451758	0.084869	0.289466	1717.969238
8863.452652	0.084917	0.289466	1793.885010
8863.453587	0.084910	0.289466	1873.275513
8864.494069	1.190621	0.306989	567.926331
8864.494980	0.610477	0.306989	1124.071045
8864.495909	0.086938	0.306989	1204.836914
8864.496854	0.084917	0.306989	1285.083496
8864.497770	0.084884	0.306989	1362.837280
8864.498657	0.084928	0.306989	1438.168457
8864.499600	0.084869	0.306989	1518.200317
8864.500532	0.084910	0.306989	1597.336182
8864.501425	0.084932	0.306989	1673.180176
8864.502336	0.084888	0.306989	1750.512817
8864.503257	0.084910	0.306989	1828.714600
8864.504192	0.084921	0.306989	1908.115356
8865.513940	1.166547	0.290509	513.280579
8865.514899	0.609675	0.290509	1097.959229
8865.515799	0.086539	0.290509	1175.844604
8865.516717	0.084873	0.290509	1253.758057
8865.517605	0.084906	0.290509	1329.154541
8865.518549	0.084866	0.290509	1409.267822
8865.519450	0.084877	0.290509	1485.741699
8865.520338	0.084847	0.290509	1561.086182
8865.521276	0.084943	0.290509	1640.762329
8865.522193	0.084866	0.290509	1718.584229
8865.523098	0.084895	0.290509	1795.414185
8865.523989	0.084855	0.290509	1871.019775
8866.559442	1.162837	0.303251	516.299561
8866.560336	0.690641	0.303251	1133.732422
8866.561291	0.086884	0.303251	1216.706177
8866.562190	0.084869	0.303251	1293.003784
8866.563076	0.084888	0.303251	1368.214233
8866.563997	0.084921	0.303251	1446.426147
8866.564924	0.084917	0.303251	1525.144165
8866.565833	0.084968	0.303251	1602.380371
8866.566724	0.084847	0.303251	1677.979370
8866.567656	0.085020	0.303251	1757.217529
8866.568559	0.084928	0.303251	1833.907471
8866.569458	0.084910	0.303251	1910.241211
8867.582411	1.155978	0.294650	502.850372
8867.583352	0.642125	0.294650	1107.090210
8867.584285	0.086587	0.294650	1187.875854
8867.585204	0.084924	0.294650	1265.921265
8867.586093	0.084990	0.294650	1341.477539
8867.587047	0.084957	0.294650	1422.526733
8867.587989	0.084833	0.294650	1502.439209
8867.588890	0.084957	0.294650	1578.985718
8867.589807	0.084902	0.294650	1656.841187
8867.590748	0.084906	0.294650	1736.737793
8867.591665	0.085020	0.294650	1814.700684
8867.592556	0.084961	0.294650	1890.400879
8868.625901	1.178280	0.306119	552.613342
8868.626812	0.626675	0.306119	1123.514038
8868.627703	0.087125	0.306119	1201.142578
8868.628628	0.084935	0.306119	1279.707764
8868.629566	0.084899	0.306119	1359.342773
8868.630496	0.084910	0.306119	1438.308716
8868.631396	0.084891	0.306119	1514.710937
8868.632318	0.084862	0.306119	1592.953735
8868.633249	0.084987	0.306119	1672.076172
8868.634189	0.084913	0.306119	1751.894653
8868.635078	0.084917	0.306119	1827.385864
8868.636006	0.084917	0.306119	1906.188843
8869.651929	1.173475	0.299178	535.104797
8869.652865	0.615747	0.299178	1111.444092
8869.653760	0.086927	0.299178	1189.244141
8869.654725	0.084891	0.299178	1271.164307
8869.655631	0.084965	0.299178	1348.142212
8869.656552	0.084873	0.299178	1426.310303
8869.657442	0.084851	0.299178	1501.827759
8869.658395	0.084987	0.299178	1582.819946
8869.659293	0.084935	0.299178	1659.091797
8869.660203	0.084873	0.299178	1736.326294
8869.661096	0.084811	0.299178	1812.062378
8869.662046	0.084950	0.299178	1892.764893
8870.694356	1.173193	0.294695	518.551453
8870.695268	0.673286	0.294695	1132.588379
8870.696155	0.087777	0.294695	1210.446655
8870.697114	0.084921	0.294695	1291.885498
8870.698015	0.084987	0.294695	1368.458374
8870.698910	0.084946	0.294695	1444.485352
8870.699838	0.084954	0.294695	1523.322266
8870.700742	0.084994	0.294695	1600.156738
8870.701647	0.084932	0.294695	1677.019897
8870.702544	0.084891	0.294695	1753.167480
8870.703464	0.084965	0.294695	1831.334961
8870.704375	0.084983	0.294695	1908.754395
8871.717333	1.172413	0.302155	520.551453
8871.718228	0.690447	0.302155	1138.501343
8871.719201	0.087048	0.302155	1223.199341
8871.720145	0.084924	0.302155	1303.367920
8871.721038	0.084990	0.302155	1379.264160
8871.721957	0.084943	0.302155	1457.326416
8871.722904	0.084961	0.302155	1537.784424
8871.723822	0.084913	0.302155	1615.734863
8871.724725	0.084921	0.302155	1692.418213
8871.725657	0.084917	0.302155	1771.560791
8871.726590	0.084910	0.302155	1850.781494
8871.727506	0.084939	0.302155	1928.585571
8872.764906	1.195840	0.301063	550.086365
8872.765810	0.655679	0.301063	1142.819946
8872.766703	0.087462	0.301063	1220.923706
8872.767624	0.084932	0.301063	1299.145752
8872.768545	0.084891	0.301063	1377.330688
8872.769469	0.085016	0.301063	1455.885376
8872.770366	0.084862	0.301063	1532.006592
8872.771315	0.084972	0.301063	1612.644897
8872.772224	0.084932	0.301063	1689.847778
8872.773144	0.084902	0.301063	1767.957886
8872.774035	0.084976	0.301063	1843.671143
8872.774988	0.084869	0.301063	1924.551636
8873.782726	1.151554	0.308351	499.774445
8873.783693	0.598001	0.308351	1078.040894
8873.784611	0.086367	0.308351	1157.325928
8873.785515	0.084961	0.308351	1234.130615
8873.786405	0.084924	0.308351	1309.713257
8873.787359	0.084939	0.308351	1390.744995
8873.788263	0.084932	0.308351	1467.523193
8873.789154	0.084888	0.308351	1543.158081
8873.790104	0.084983	0.308351	1623.891846
8873.791007	0.084899	0.308351	1700.555298
8873.791903	0.084873	0.308351	1776.601562
8873.792797	0.084880	0.308351	1852.484619
8874.835405	1.163731	0.299803	510.877686
8874.836348	0.633886	0.299803	1108.631714
8874.837258	0.086656	0.299803	1187.489136
8874.838161	0.084844	0.299803	1264.103027
8874.839052	0.084921	0.299803	1339.767334
8874.839999	0.084902	0.299803	1420.169800
8874.840906	0.084877	0.299803	1497.152954
8874.841802	0.084935	0.299803	1573.255005
8874.842715	0.084961	0.299803	1650.824341
8874.843626	0.085001	0.299803	1728.260498
8874.844535	0.084917	0.299803	1805.450073
8874.845425	0.084932	0.299803	1881.039185
8875.852267	1.172944	0.292479	548.937927
8875.853190	0.617600	0.292479	1118.982788
8875.854081	0.086938	0.292479	1196.444946
8875.855003	0.084939	0.292479	1274.758667
8875.855941	0.084847	0.292479	1354.345581
8875.856862	0.084917	0.292479	1432.554077
8875.857750	0.084957	0.292479	1507.996094
8875.858690	0.084939	0.292479	1587.838745
8875.859613	0.084932	0.292479	1666.230713
8875.860528	0.084954	0.292479	1743.963257
8875.861422	0.084917	0.292479	1819.879028
8875.862379	0.084866	0.292479	1901.095581
8876.900876	1.238335	0.311690	625.359131
8876.901798	0.557563	0.311690	1139.432617
8876.902725	0.085741	0.311690	1218.914551
8876.903616	0.084851	0.311690	1294.516846
8876.904564	0.084869	0.311690	1374.973022
8876.905487	0.084844	0.311690	1453.283813
8876.906380	0.084814	0.311690	1529.023071
8876.907319	0.084858	0.311690	1608.705078
8876.908219	0.084851	0.311690	1685.071045
8876.909140	0.084888	0.311690	1763.252563
8876.910035	0.084811	0.311690	1839.158203
8876.910984	0.084869	0.311690	1919.699219
8877.921748	1.169176	0.299706	517.944946
8877.922701	0.620662	0.299706	1109.435547
8877.923608	0.086620	0.299706	1187.999756
8877.924505	0.084888	0.299706	1264.144043
8877.925396	0.084906	0.299706	1339.795288
8877.926329	0.084924	0.299706	1419.029663
8877.927238	0.084932	0.299706	1496.232544
8877.928137	0.084932	0.299706	1572.586060
8877.929048	0.084983	0.299706	1650.005493
8877.929967	0.084979	0.299706	1728.101440
8877.930877	0.084840	0.299706	1805.305908
8877.931770	0.084902	0.299706	1881.123657
8878.966244	1.191277	0.309261	545.604797
8878.967187	0.605482	0.309261	1116.574463
8878.968076	0.086744	0.309261	1193.690186
8878.969032	0.084888	0.309261	1274.842773
8878.969966	0.084935	0.309261	1354.172363
8878.970865	0.084961	0.309261	1430.552246
8878.971789	0.084961	0.309261	1509.056152
8878.972730	0.084968	0.309261	1589.011230
8878.973641	0.084994	0.309261	1666.440674
8878.974539	0.084939	0.309261	1742.715820
8878.975488	0.084913	0.309261	1823.298584
8878.976421	0.084968	0.309261	1902.573975
8879.992279	1.166532	0.299098	519.106689
8879.993184	0.673964	0.299098	1129.043823
8879.994115	0.087638	0.299098	1210.634766
8879.995061	0.084855	0.299098	1290.907349
8879.995977	0.084858	0.299098	1368.637695
8879.996878	0.084954	0.299098	1445.180908
8879.997802	0.084884	0.299098	1523.613770
8879.998741	0.085001	0.299098	1603.429932
8879.999660	0.084994	0.299098	1681.539307
8880.000551	0.084877	0.299098	1757.164429
8880.001492	0.084924	0.299098	1837.078247
8880.002425	0.084987	0.299098	1916.370728
8881.034712	1.167081	0.299726	524.019470
8881.035608	0.683818	0.299726	1136.720703
8881.036551	0.087682	0.299726	1219.404785
8881.037457	0.084921	0.299726	1296.342896
8881.038372	0.084877	0.299726	1374.005127
8881.039270	0.084965	0.299726	1450.303345
8881.040222	0.084869	0.299726	1531.098999
8881.041129	0.084928	0.299726	1608.128662
8881.042043	0.084858	0.299726	1685.689209
8881.042948	0.084954	0.299726	1762.572266
8881.043884	0.084833	0.299726	1841.975708
8881.044787	0.084873	0.299726	1918.616089
8882.057679	1.161116	0.311465	509.729828
8882.058574	0.684152	0.311465	1122.045532
8882.059540	0.086646	0.311465	1205.745117
8882.060448	0.084840	0.311465	1282.779907
8882.061345	0.084873	0.311465	1358.911011
8882.062285	0.085023	0.311465	1438.832764
8882.063185	0.084950	0.311465	1515.287720
8882.064080	0.084906	0.311465	1591.278564
8882.064970	0.084899	0.311465	1666.838379
8882.065909	0.084939	0.311465	1746.596069
8882.066823	0.084946	0.311465	1824.236938
8882.067721	0.084836	0.311465	1900.420044
8883.105262	1.205647	0.300439	567.859741
8883.106198	0.578298	0.300439	1109.146973
8883.107122	0.086166	0.300439	1188.764160
8883.108013	0.084957	0.300439	1264.461060
8883.108952	0.084983	0.300439	1344.260010
8883.109859	0.084895	0.300439	1421.259766
8883.110760	0.084888	0.300439	1497.743530
8883.111650	0.084825	0.300439	1573.238159
8883.112585	0.085038	0.300439	1652.748535
8883.113494	0.084902	0.300439	1729.924805
8883.114392	0.084917	0.300439	1806.180298
8883.115318	0.084895	0.300439	1884.793091
8884.123092	1.160343	0.309479	510.550934
8884.124053	0.613641	0.309479	1100.260254
8884.124989	0.086195	0.309479	1180.938843
8884.125878	0.084957	0.309479	1256.465820
8884.126797	0.084924	0.309479	1334.511230
8884.127734	0.084924	0.309479	1414.085327
8884.128655	0.084844	0.309479	1492.226440
8884.129554	0.084943	0.309479	1568.589844
8884.130494	0.084891	0.309479	1648.387695
8884.131424	0.084921	0.309479	1727.363892
8884.132343	0.084935	0.309479	1805.419434
8884.133237	0.084910	0.309479	1881.328735
8885.174741	1.172454	0.302711	526.431702
8885.175639	0.685547	0.302711	1142.052734
8885.176598	0.087623	0.302711	1226.083496
8885.177495	0.084972	0.302711	1302.303345
8885.178422	0.084866	0.302711	1380.973877
8885.179311	0.084965	0.302711	1456.507446
8885.180254	0.084847	0.302711	1536.518555
8885.181164	0.084873	0.302711	1613.753052
8885.182060	0.084906	0.302711	1689.828857
8885.182965	0.084884	0.302711	1766.648926
8885.183904	0.084847	0.302711	1846.320679
8885.184827	0.084946	0.302711	1924.726074
8886.190547	1.173274	0.304818	520.933594
8886.191446	0.673176	0.304818	1126.119141
8886.192411	0.086411	0.304818	1209.505859
8886.193322	0.084902	0.304818	1286.851929
8886.194227	0.084932	0.304818	1363.715088
8886.195121	0.084833	0.304818	1439.555542
8886.196069	0.084906	0.304818	1520.046387
8886.196970	0.084807	0.304818	1596.457642
8886.197861	0.084950	0.304818	1672.148071
8886.198792	0.084924	0.304818	1751.212646
8886.199707	0.084873	0.304818	1828.871460
8886.200613	0.084888	0.304818	1905.779663
8887.242200	1.177310	0.313024	520.370789
8887.243129	0.651042	0.313024	1125.189209
8887.244027	0.087184	0.313024	1203.480347
8887.244974	0.084899	0.313024	1283.879395
8887.245884	0.084983	0.313024	1361.213867
8887.246783	0.084913	0.313024	1437.550903
8887.247669	0.084844	0.313024	1512.722412
8887.248609	0.084976	0.313024	1592.599487
8887.249508	0.084862	0.313024	1668.890503
8887.250413	0.084906	0.313024	1745.730469
8887.251299	0.084950	0.313024	1820.996094
8887.252237	0.084954	0.313024	1900.682617
8888.259037	1.182052	0.301261	536.651611
8888.259939	0.665284	0.301261	1136.738159
8888.260888	0.086927	0.301261	1219.232300
8888.261823	0.084851	0.301261	1298.568115
8888.262739	0.084888	0.301261	1376.325195
8888.263625	0.084924	0.301261	1451.568115
8888.264561	0.084855	0.301261	1530.992187
8888.265499	0.084921	0.301261	1610.647705
8888.266398	0.084836	0.301261	1686.915649
8888.267317	0.084818	0.301261	1764.863525
8888.268255	0.084917	0.301261	1844.515625
8888.269174	0.084851	0.301261	1922.493774
8889.307636	1.185095	0.311078	558.179810
8889.308546	0.628308	0.311078	1129.940186
8889.309432	0.087246	0.311078	1207.240234
8889.310404	0.084803	0.311078	1289.669189
8889.311336	0.084884	0.311078	1368.781128
8889.312237	0.084965	0.311078	1445.334229
8889.313154	0.084866	0.311078	1523.156128
8889.314090	0.084921	0.311078	1602.641846
8889.315014	0.084895	0.311078	1681.084839
8889.315915	0.084902	0.311078	1757.581909
8889.316840	0.084869	0.311078	1836.086060
8889.317779	0.084928	0.311078	1915.833374
8890.328516	1.165195	0.302546	508.025116
8890.329502	0.585242	0.302546	1085.073364
8890.330402	0.086290	0.302546	1162.734619
8890.331286	0.084869	0.302546	1237.759155
8890.332228	0.084884	0.302546	1317.719971
8890.333133	0.084891	0.302546	1394.546631
8890.334052	0.084851	0.302546	1472.524780
8890.334946	0.084976	0.302546	1548.492920
8890.335896	0.084811	0.302546	1629.063232
8890.336802	0.084833	0.302546	1705.921753
8890.337727	0.084921	0.302546	1784.473389
8890.338616	0.084888	0.302546	1859.938599
8891.375071	1.174882	0.315509	523.997192
8891.376001	0.646106	0.315509	1124.875732
8891.376893	0.087107	0.315509	1202.575073
8891.377822	0.084921	0.315509	1281.466309
8891.378728	0.084965	0.315509	1358.444214
8891.379639	0.084836	0.315509	1435.730225
8891.380540	0.084976	0.315509	1512.293213
8891.381469	0.084994	0.315509	1591.252563
8891.382380	0.084972	0.315509	1668.661987
8891.383280	0.084976	0.315509	1745.140015
8891.384168	0.084921	0.315509	1820.549561
8891.385113	0.085009	0.315509	1900.882690
8892.398049	1.196484	0.303565	549.186279
8892.398955	0.641473	0.303565	1130.361084
8892.399884	0.086788	0.303565	1210.987427
8892.400832	0.084858	0.303565	1291.433228
8892.401753	0.084899	0.303565	1369.624878
8892.402642	0.084910	0.303565	1445.109619
8892.403595	0.084825	0.303565	1525.948242
8892.404533	0.084847	0.303565	1605.535156
8892.405429	0.084855	0.303565	1681.564941
8892.406363	0.084818	0.303565	1760.785034
8892.407293	0.084836	0.303565	1839.682861
8892.408215	0.084818	0.303565	1917.885132
8893.441486	1.171370	0.316911	517.745422
8893.442467	0.561731	0.316911	1068.803467
8893.443370	0.086199	0.316911	1146.640869
8893.444265	0.084910	0.316911	1222.635010
8893.445199	0.084917	0.316911	1301.947510
8893.446106	0.084924	0.316911	1378.973877
8893.447024	0.084884	0.316911	1456.897461
8893.447911	0.084880	0.316911	1532.186401
8893.448862	0.084851	0.316911	1612.879761
8893.449765	0.084844	0.316911	1689.493652
8893.450689	0.084902	0.316911	1767.943359
8893.451577	0.084899	0.316911	1843.333374
8894.466509	1.163947	0.306091	512.136475
8894.467452	0.673433	0.306091	1147.183472
8894.468377	0.086602	0.306091	1227.289917
8894.469288	0.084906	0.306091	1304.639282
8894.470183	0.084899	0.306091	1380.623657
8894.471116	0.085009	0.306091	1459.936646
8894.472008	0.084987	0.306091	1535.744629
8894.472907	0.084847	0.306091	1612.022461
8894.473796	0.085001	0.306091	1687.588501
8894.474744	0.085107	0.306091	1768.270386
8894.475653	0.084928	0.306091	1845.469971
8894.476548	0.084899	0.306091	1921.454346
8895.509999	1.186483	0.316500	565.952454
8895.510935	0.578921	0.316500	1107.822388
8895.511860	0.086038	0.316500	1187.407227
8895.512749	0.084771	0.316500	1262.768188
8895.513703	0.084888	0.316500	1343.751099
8895.514636	0.084884	0.316500	1422.947876
8895.515530	0.084939	0.316500	1498.883301
8895.516461	0.084950	0.316500	1577.971680
8895.517396	0.084899	0.316500	1657.351929
8895.518321	0.084880	0.316500	1735.866211
8895.519214	0.084910	0.316500	1811.690552
8895.520149	0.084884	0.316500	1891.057129
8896.533976	1.164620	0.304222	514.762207
8896.534871	0.692439	0.304222	1134.495117
8896.535849	0.086642	0.304222	1219.230835
8896.536762	0.084921	0.304222	1296.763428
8896.537662	0.084954	0.304222	1373.221680
8896.538580	0.084921	0.304222	1451.178833
8896.539501	0.084869	0.304222	1529.343506
8896.540421	0.084888	0.304222	1607.440186
8896.541311	0.084961	0.304222	1683.055420
8896.542240	0.084869	0.304222	1761.899048
8896.543160	0.084862	0.304222	1839.972168
8896.544078	0.085009	0.304222	1918.010010
8897.576399	1.160724	0.318695	511.879211
8897.577288	0.698342	0.318695	1132.705566
8897.578250	0.086627	0.318695	1216.040894
8897.579159	0.084825	0.318695	1293.147217
8897.580046	0.084910	0.318695	1368.462158
8897.580979	0.084943	0.318695	1447.713623
8897.581896	0.084939	0.318695	1525.602661
8897.582802	0.084884	0.318695	1602.507568
8897.583693	0.084954	0.318695	1678.201294
8897.584645	0.085023	0.318695	1759.143311
8897.585558	0.084895	0.318695	1836.652466
8897.586458	0.084939	0.318695	1913.097534
8898.602441	1.162533	0.307863	510.352020
8898.603420	0.590380	0.307863	1088.333618
8898.604359	0.086049	0.307863	1169.133179
8898.605258	0.084943	0.307863	1245.496582
8898.606183	0.084873	0.307863	1324.004150
8898.607125	0.084891	0.307863	1403.971802
8898.608038	0.084884	0.307863	1481.470947
8898.608929	0.084917	0.307863	1557.131958
8898.609876	0.084869	0.307863	1637.503296
8898.610796	0.084961	0.307863	1715.667358
8898.611704	0.084924	0.307863	1792.778687
8898.612599	0.084979	0.307863	1868.835083
8899.646958	1.179324	0.317374	554.282166
8899.647874	0.617531	0.317374	1119.940186
8899.648797	0.086946	0.317374	1200.191162
8899.649747	0.084862	0.317374	1280.810059
8899.650666	0.084891	0.317374	1358.825195
8899.651554	0.084917	0.317374	1434.231445
8899.652503	0.084950	0.317374	1514.848999
8899.653439	0.084803	0.317374	1594.225098
8899.654337	0.084829	0.317374	1670.401611
8899.655262	0.084906	0.317374	1748.939697
8899.656192	0.084950	0.317374	1827.943115
8899.657124	0.084891	0.317374	1907.061890
8900.668894	1.173289	0.307827	531.499756
8900.669793	0.677260	0.307827	1140.356079
8900.670745	0.087729	0.307827	1223.874512
8900.671660	0.084906	0.307827	1301.563477
8900.672550	0.084917	0.307827	1377.139648
8900.673439	0.084895	0.307827	1452.611328
8900.674374	0.084987	0.307827	1532.073730
8900.675279	0.084928	0.307827	1608.933594
8900.676177	0.084891	0.307827	1685.166016
8900.677063	0.084943	0.307827	1760.425171
8900.678012	0.084939	0.307827	1841.032227
8900.678912	0.084858	0.307827	1917.404785
8901.715399	1.156677	0.317805	504.311279
8901.716353	0.621460	0.317805	1097.184082
8901.717311	0.086294	0.317805	1179.853638
8901.718233	0.084943	0.317805	1258.170776
8901.719123	0.084921	0.317805	1333.750122
8901.720061	0.084895	0.317805	1413.381592
8901.720996	0.084906	0.317805	1492.768677
8901.721894	0.084899	0.317805	1569.007690
8901.722815	0.084869	0.317805	1647.172363
8901.723748	0.084913	0.317805	1726.396484
8901.724660	0.084836	0.317805	1803.767334
8901.725547	0.084862	0.317805	1879.040039
8902.735325	1.171538	0.306453	523.677551
8902.736236	0.663464	0.306453	1128.093506
8902.737124	0.087535	0.306453	1205.824951
8902.738064	0.084836	0.306453	1285.571167
8902.738977	0.084932	0.306453	1363.113770
8902.739891	0.084855	0.306453	1440.671021
8902.740789	0.084987	0.306453	1516.989014
8902.741751	0.084873	0.306453	1598.636841
8902.742648	0.084935	0.306453	1674.823853
8902.743561	0.084880	0.306453	1752.319580
8902.744452	0.084979	0.306453	1828.036133
8902.745398	0.084932	0.306453	1908.381470
8903.784920	1.173398	0.318639	532.722839
8903.785821	0.671232	0.318639	1137.502563
8903.786713	0.087803	0.318639	1215.822632
8903.787673	0.084968	0.318639	1297.392212
8903.788576	0.084891	0.318639	1374.049072
8903.789467	0.084899	0.318639	1449.693848
8903.790401	0.084961	0.318639	1529.047363
8903.791303	0.084917	0.318639	1605.642456
8903.792206	0.084979	0.318639	1682.378662
8903.793098	0.084895	0.318639	1758.104980
8903.794054	0.084946	0.318639	1839.313599
8903.794956	0.084884	0.318639	1915.879028
8904.802793	1.174263	0.313918	546.032104
8904.803727	0.605933	0.313918	1111.973145
8904.804654	0.086166	0.313918	1191.848877
8904.805542	0.084873	0.313918	1267.216187
8904.806491	0.084884	0.313918	1347.771118
8904.807418	0.084877	0.313918	1426.451782
8904.808317	0.084990	0.313918	1502.858032
8904.809233	0.084921	0.313918	1580.645386
8904.810164	0.084888	0.313918	1659.675781
8904.811090	0.084917	0.313918	1738.308960
8904.811988	0.084921	0.313918	1814.567749
8904.812917	0.084891	0.313918	1893.431763
8905.853390	1.163104	0.312927	511.765839
8905.854286	0.689700	0.312927	1129.736816
8905.855259	0.086730	0.312927	1214.124878
8905.856191	0.084847	0.312927	1293.202637
8905.857088	0.084899	0.312927	1369.356689
8905.858008	0.084917	0.312927	1447.480347
8905.858945	0.084917	0.312927	1527.047607
8905.859862	0.084917	0.312927	1604.916504
8905.860749	0.084906	0.312927	1680.228149
8905.861682	0.084851	0.312927	1759.394165
8905.862622	0.084785	0.312927	1839.092163
8905.863521	0.084873	0.312927	1915.393066
8906.870292	1.236665	0.317249	630.699158
8906.871221	0.544310	0.317249	1136.363525
8906.872119	0.086118	0.317249	1213.697632
8906.873004	0.084873	0.317249	1288.810303
8906.873934	0.084998	0.317249	1367.858032
8906.874840	0.084935	0.317249	1444.809448
8906.875729	0.084950	0.317249	1520.329956
8906.876642	0.084968	0.317249	1597.906006
8906.877559	0.085009	0.317249	1675.858887
8906.878462	0.084943	0.317249	1752.562012
8906.879352	0.084965	0.317249	1828.180542
8906.880296	0.084987	0.317249	1908.407837
8907.920857	1.181378	0.311924	529.257385
8907.921766	0.674799	0.311924	1142.649292
8907.922658	0.087766	0.311924	1220.936646
8907.923598	0.084983	0.311924	1300.820557
8907.924508	0.084943	0.311924	1378.118408
8907.925407	0.084851	0.311924	1454.399536
8907.926347	0.084965	0.311924	1534.266235
8907.927250	0.085045	0.311924	1611.062012
8907.928154	0.084877	0.311924	1687.790527
8907.929042	0.084899	0.311924	1763.180542
8907.929993	0.085001	0.311924	1844.016724
8907.930894	0.084994	0.311924	1920.596191
8908.939733	1.167828	0.322136	515.012329
8908.940629	0.692937	0.322136	1135.883911
8908.941591	0.086953	0.322136	1219.532837
8908.942520	0.084844	0.322136	1298.352661
8908.943416	0.085038	0.322136	1374.546509
8908.944333	0.084847	0.322136	1452.351562
8908.945258	0.084899	0.322136	1530.882812
8908.946191	0.084928	0.322136	1610.120605
8908.947085	0.084888	0.322136	1686.010254
8908.948011	0.084943	0.322136	1764.667114
8908.948949	0.084939	0.322136	1844.339844
8908.949880	0.084913	0.322136	1923.394165
8909.986246	1.154517	0.315054	504.523743
8909.987217	0.586963	0.315054	1074.464722
8909.988127	0.086353	0.315054	1153.045532
8909.989046	0.084869	0.315054	1231.040527
8909.989937	0.084957	0.315054	1306.737427
8909.990886	0.084913	0.315054	1387.320190
8909.991783	0.084902	0.315054	1463.477539
8909.992673	0.084943	0.315054	1539.076416
8909.993617	0.084994	0.315054	1619.310669
8909.994525	0.084895	0.315054	1696.395386
8909.995440	0.084884	0.315054	1774.064331
8909.996341	0.084906	0.315054	1850.564697
8911.010270	1.182176	0.315723	528.432861
8911.011174	0.676718	0.315723	1140.185547
8911.012061	0.087887	0.315723	1218.141235
8911.013026	0.084957	0.315723	1300.125000
8911.013938	0.085031	0.315723	1377.672852
8911.014830	0.084906	0.315723	1453.409058
8911.015741	0.084902	0.315723	1530.755127
8911.016661	0.084968	0.315723	1608.925903
8911.017565	0.084862	0.315723	1685.641235
8911.018465	0.084895	0.315723	1762.046753
8911.019382	0.084968	0.315723	1839.962646
8911.020282	0.084957	0.315723	1916.424194
8912.052707	1.174838	0.319123	535.726013
8912.053609	0.658740	0.319123	1129.909668
8912.054542	0.087440	0.319123	1211.491333
8912.055487	0.084847	0.319123	1291.672119
8912.056404	0.084884	0.319123	1369.510742
8912.057293	0.084932	0.319123	1445.015015
8912.058221	0.084939	0.319123	1523.838379
8912.059151	0.084891	0.319123	1602.787354
8912.060055	0.084979	0.319123	1679.608643
8912.060962	0.084946	0.319123	1756.654907
8912.061896	0.084895	0.319123	1835.946899
8912.062840	0.084979	0.319123	1916.167358
8913.077733	1.174775	0.316488	535.697571
8913.078630	0.668676	0.316488	1135.499512
8913.079520	0.087656	0.316488	1213.513550
8913.080473	0.084829	0.316488	1294.355713
8913.081376	0.084884	0.316488	1371.005981
8913.082267	0.084946	0.316488	1446.693115
8913.083199	0.084921	0.316488	1525.839111
8913.084112	0.084888	0.316488	1603.341553
8913.085014	0.084880	0.316488	1679.903687
8913.085905	0.084840	0.316488	1755.496216
8913.086859	0.084961	0.316488	1836.548950
8913.087763	0.084833	0.316488	1913.237793
8914.121175	1.168868	0.323908	523.653076
8914.122069	0.673857	0.323908	1126.081665
8914.123019	0.086744	0.323908	1208.488892
8914.123928	0.084899	0.323908	1285.661743
8914.124823	0.084913	0.323908	1361.659180
8914.125763	0.084954	0.323908	1441.515625
8914.126666	0.084939	0.323908	1518.215454
8914.127570	0.084895	0.323908	1594.960571
8914.128460	0.084891	0.323908	1670.513916
8914.129408	0.084877	0.323908	1750.977051
8914.130316	0.084895	0.323908	1828.061768
8914.131207	0.084957	0.323908	1903.758667
8915.145209	1.179053	0.311259	555.333801
8915.146119	0.621709	0.311259	1121.088867
8915.147008	0.086993	0.311259	1198.426025
8915.147957	0.084844	0.311259	1278.942749
8915.148882	0.084902	0.311259	1357.477417
8915.149807	0.084932	0.311259	1436.039185
8915.150693	0.084836	0.311259	1511.204224
8915.151644	0.084983	0.311259	1592.022949
8915.152584	0.084833	0.311259	1671.765747
8915.153473	0.084858	0.311259	1747.204834
8915.154389	0.084869	0.311259	1824.945190
8915.155326	0.084862	0.311259	1904.460937
8916.190683	1.179097	0.322853	534.130798
8916.191587	0.665793	0.322853	1136.008057
8916.192475	0.087583	0.322853	1213.781738
8916.193447	0.084862	0.322853	1296.267700
8916.194351	0.084873	0.322853	1372.992920
8916.195242	0.084891	0.322853	1448.631104
8916.196167	0.084888	0.322853	1527.152222
8916.197085	0.084873	0.322853	1605.065674
8916.197980	0.084789	0.322853	1680.951660
8916.198868	0.084844	0.322853	1756.292969
8916.199800	0.084858	0.322853	1835.380981
8916.200708	0.084877	0.322853	1912.448975
8917.209609	1.238225	0.318301	606.730286
8917.210517	0.596931	0.318301	1148.743774
8917.211405	0.086803	0.318301	1225.824829
8917.212356	0.084994	0.318301	1306.654053
8917.213257	0.084818	0.318301	1383.075195
8917.214153	0.084899	0.318301	1459.144409
8917.215044	0.084924	0.318301	1534.812012
8917.215982	0.084924	0.318301	1614.471069
8917.216887	0.084957	0.318301	1691.357422
8917.217780	0.084906	0.318301	1767.178467
8917.218713	0.084965	0.318301	1846.450439
8917.219614	0.084939	0.318301	1922.980469
8918.261233	1.221511	0.319940	578.996338
8918.262175	0.562365	0.319940	1108.743652
8918.263064	0.086455	0.319940	1185.602173
8918.263990	0.084847	0.319940	1264.170898
8918.264914	0.084851	0.319940	1342.573242
8918.265830	0.084877	0.319940	1420.320312
8918.266716	0.084825	0.319940	1495.475586
8918.267646	0.084899	0.319940	1574.431396
8918.268580	0.084880	0.319940	1653.709717
8918.269480	0.084891	0.319940	1730.111938
8918.270398	0.084833	0.319940	1807.988403
8918.271328	0.084796	0.319940	1886.848755
8919.277028	1.177057	0.325870	537.914978
8919.277931	0.660927	0.325870	1134.731689
8919.278819	0.087667	0.325870	1212.580200
8919.279772	0.084994	0.325870	1293.579346
8919.280681	0.084928	0.325870	1370.778931
8919.281572	0.084913	0.325870	1446.436768
8919.282489	0.084976	0.325870	1524.359375
8919.283424	0.084895	0.325870	1603.736206
8919.284332	0.084899	0.325870	1680.824219
8919.285226	0.084913	0.325870	1756.736694
8919.286169	0.084943	0.325870	1836.837646
8919.287070	0.084873	0.325870	1913.308228
8920.328679	1.184425	0.318953	543.651062
8920.329601	0.634948	0.318953	1129.072754
8920.330495	0.087081	0.318953	1206.923462
8920.331382	0.084917	0.318953	1282.244873
8920.332321	0.085027	0.318953	1362.085083
8920.333228	0.085016	0.318953	1439.194458
8920.334129	0.084968	0.318953	1515.750854
8920.335049	0.085005	0.318953	1593.955322
8920.335956	0.084961	0.318953	1671.014893
8920.336866	0.084924	0.318953	1748.296021
8920.337766	0.084921	0.318953	1824.724609
8920.338723	0.084998	0.318953	1906.067261
8921.346510	1.172732	0.324891	518.347473
8921.347491	0.567334	0.324891	1074.902100
8921.348409	0.086016	0.324891	1153.864502
8921.349303	0.084935	0.324891	1229.796631
8921.350222	0.084972	0.324891	1307.885864
8921.351155	0.084873	0.324891	1387.072388
8921.352072	0.084921	0.324891	1464.944580
8921.352959	0.084851	0.324891	1540.207520
8921.353904	0.084851	0.324891	1620.391846
8921.354842	0.084939	0.324891	1700.064575
8921.355734	0.084888	0.324891	1775.784424
8921.356649	0.084913	0.324891	1853.480103
8922.395086	1.165514	0.320436	515.157104
8922.396049	0.588647	0.320436	1082.024658
8922.396965	0.086283	0.320436	1161.059814
8922.397895	0.084855	0.320436	1239.974731
8922.398782	0.084968	0.320436	1315.341553
8922.399730	0.084851	0.320436	1395.780396
8922.400624	0.084888	0.320436	1471.670044
8922.401512	0.084902	0.320436	1547.063354
8922.402462	0.084954	0.320436	1627.769287
8922.403358	0.084928	0.320436	1703.864746
8922.404280	0.084866	0.320436	1782.110962
8922.405179	0.084935	0.320436	1858.467773
8923.417042	1.181118	0.326365	529.140930
8923.418031	0.558241	0.326365	1081.241211
8923.418951	0.085873	0.326365	1160.244141
8923.419842	0.084895	0.326365	1235.885620
8923.420771	0.084943	0.326365	1314.797363
8923.421700	0.085016	0.326365	1393.777100
8923.422621	0.084818	0.326365	1471.894531
8923.423524	0.084899	0.326365	1548.557983
8923.424461	0.084877	0.326365	1628.087402
8923.425403	0.084877	0.326365	1708.041260
8923.426305	0.084935	0.326365	1784.652954
8923.427220	0.084910	0.326365	1862.345337
8924.460508	1.180876	0.321020	529.032654
8924.461415	0.671521	0.321020	1138.102295
8924.462311	0.087729	0.321020	1216.707886
8924.463260	0.084935	0.321020	1297.311523
8924.464184	0.084873	0.321020	1375.734253
8924.465071	0.084910	0.321020	1451.049072
8924.466018	0.084957	0.321020	1531.503662
8924.466925	0.084899	0.321020	1608.506714
8924.467843	0.085020	0.321020	1686.554687
8924.468744	0.084917	0.321020	1763.064941
8924.469701	0.084946	0.321020	1844.358521
8924.470618	0.084851	0.321020	1922.166992
8925.486548	1.166342	0.324645	523.687378
8925.487441	0.688583	0.324645	1138.591797
8925.488375	0.087770	0.324645	1220.568726
8925.489293	0.084840	0.324645	1298.451904
8925.490197	0.084990	0.324645	1375.283081
8925.491090	0.084913	0.324645	1451.110718
8925.492043	0.084976	0.324645	1532.092407
8925.492942	0.084862	0.324645	1608.383423
8925.493837	0.084972	0.324645	1684.433350
8925.494747	0.084987	0.324645	1761.771118
8925.495675	0.085005	0.324645	1840.655640
8925.496575	0.084932	0.324645	1917.094116
8926.526968	1.225851	0.325378	594.537659
8926.527915	0.536957	0.325378	1103.035767
8926.528834	0.085671	0.325378	1181.767822
8926.529732	0.084738	0.325378	1257.862183
8926.530650	0.084749	0.325378	1335.661377
8926.531582	0.084851	0.325378	1414.742554
8926.532499	0.084906	0.325378	1492.601318
8926.533389	0.084792	0.325378	1568.066650
8926.534337	0.084778	0.325378	1648.436035
8926.535279	0.084727	0.325378	1728.248413
8926.536179	0.084774	0.325378	1804.545166
8926.537116	0.084767	0.325378	1883.971680
8927.555017	1.156450	0.321966	504.212280
8927.555990	0.583187	0.321966	1071.653442
8927.556904	0.086140	0.321966	1150.385498
8927.557795	0.084836	0.321966	1225.974731
8927.558705	0.084712	0.321966	1303.062622
8927.559650	0.084694	0.321966	1383.098022
8927.560580	0.084741	0.321966	1461.907349
8927.561474	0.084822	0.321966	1537.738037
8927.562418	0.084771	0.321966	1617.761353
8927.563314	0.084749	0.321966	1693.696045
8927.564228	0.084814	0.321966	1771.216431
8927.565126	0.084840	0.321966	1847.402832
8928.595431	1.206332	0.330784	562.150635
8928.596351	0.617303	0.330784	1130.069824
8928.597244	0.086982	0.330784	1207.745117
8928.598199	0.084943	0.330784	1288.865356
8928.599113	0.084932	0.330784	1366.492920
8928.600007	0.084899	0.330784	1442.392334
8928.600953	0.084888	0.330784	1522.696045
8928.601853	0.085060	0.330784	1599.249878
8928.602749	0.084998	0.330784	1675.407715
8928.603640	0.084932	0.330784	1751.081787
8928.604568	0.085020	0.330784	1829.979858
8928.605478	0.084976	0.330784	1907.307617
8929.622480	1.175321	0.322075	520.667175
8929.623464	0.573545	0.322075	1085.035400
8929.624388	0.085935	0.322075	1164.439453
8929.625306	0.084891	0.322075	1242.369751
8929.626194	0.084950	0.322075	1317.805298
8929.627133	0.084866	0.322075	1397.494263
8929.628072	0.084954	0.322075	1477.265747
8929.628978	0.084921	0.322075	1554.203857
8929.629893	0.084968	0.322075	1631.949829
8929.630834	0.085020	0.322075	1711.953247
8929.631746	0.084935	0.322075	1789.414307
8929.632639	0.084847	0.322075	1865.183105
8930.662880	1.172190	0.331042	528.657654
8930.663786	0.672755	0.331042	1138.173828
8930.664675	0.087770	0.331042	1216.201172
8930.665638	0.084917	0.331042	1297.976196
8930.666528	0.084866	0.331042	1373.506714
8930.667448	0.084932	0.331042	1451.643799
8930.668342	0.084910	0.331042	1527.553101
8930.669296	0.084946	0.331042	1608.591797
8930.670214	0.084972	0.331042	1686.596069
8930.671106	0.084888	0.331042	1762.315918
8930.672040	0.084910	0.331042	1841.621582
8930.672961	0.084913	0.331042	1919.826782
8931.689930	1.154769	0.322172	504.634186
8931.690907	0.575607	0.322172	1067.001831
8931.691819	0.086246	0.322172	1145.658447
8931.692727	0.084910	0.322172	1222.756470
8931.693617	0.084921	0.322172	1298.335815
8931.694566	0.084983	0.322172	1378.984619
8931.695474	0.084888	0.322172	1456.062622
8931.696367	0.084924	0.322172	1531.900024
8931.697303	0.085012	0.322172	1611.471436
8931.698209	0.084968	0.322172	1688.452637
8931.699104	0.084965	0.322172	1764.495972
8931.699994	0.084921	0.322172	1840.075317
8932.731336	1.154846	0.330164	503.512939
8932.732234	0.705535	0.330164	1137.083008
8932.733201	0.087136	0.330164	1221.343750
8932.734136	0.084961	0.330164	1300.782227
8932.735044	0.084943	0.330164	1377.910156
8932.735954	0.084961	0.330164	1455.224609
8932.736880	0.084983	0.330164	1533.918823
8932.737816	0.085045	0.330164	1613.521118
8932.738708	0.084990	0.330164	1689.332397
8932.739634	0.084965	0.330164	1768.009644
8932.740559	0.084950	0.330164	1846.588379
8932.741476	0.084972	0.330164	1924.507568
8933.758469	1.215381	0.324601	602.828918
8933.759402	0.563258	0.324601	1128.348633
8933.760325	0.085997	0.324601	1207.724121
8933.761214	0.084877	0.324601	1283.179565
8933.762178	0.084979	0.324601	1365.099609
8933.763099	0.084913	0.324601	1443.304810
8933.763992	0.084880	0.324601	1519.103027
8933.764919	0.084921	0.324601	1597.824463
8933.765832	0.084921	0.324601	1675.357056
8933.766761	0.084836	0.324601	1754.170044
8933.767650	0.084961	0.324601	1829.700317
8933.768582	0.084924	0.324601	1908.849731
8934.799824	1.168143	0.331800	517.487488
8934.800717	0.688356	0.331800	1132.189209
8934.801691	0.086624	0.331800	1216.560547
8934.802592	0.084891	0.331800	1293.047607
8934.803485	0.084917	0.331800	1368.878418
8934.804414	0.084976	0.331800	1447.820801
8934.805315	0.084866	0.331800	1524.284790
8934.806235	0.084880	0.331800	1602.374756
8934.807129	0.084917	0.331800	1678.290527
8934.808074	0.084987	0.331800	1758.602783
8934.808982	0.084924	0.331800	1835.714111
8934.809902	0.084895	0.331800	1913.817505
8935.826953	1.220167	0.324271	611.303833
8935.827867	0.564023	0.324271	1126.821289
8935.828775	0.086279	0.324271	1205.162842
8935.829666	0.084873	0.324271	1280.784668
8935.830617	0.085063	0.324271	1361.680054
8935.831528	0.084987	0.324271	1439.102783
8935.832429	0.084902	0.324271	1515.599854
8935.833368	0.084899	0.324271	1595.319702
8935.834268	0.085001	0.324271	1671.820801
8935.835172	0.084961	0.324271	1748.625488
8935.836065	0.085038	0.324271	1824.564331
8935.836995	0.085038	0.324271	1903.649536
8936.867279	1.158995	0.331159	503.003937
8936.868216	0.652588	0.331159	1114.478760
8936.869148	0.086499	0.331159	1195.095825
8936.870075	0.084822	0.331159	1273.725586
8936.870978	0.084965	0.331159	1350.448608
8936.871895	0.084833	0.331159	1428.240234
8936.872833	0.084873	0.331159	1507.851196
8936.873751	0.084979	0.331159	1585.862183
8936.874639	0.084910	0.331159	1661.261963
8936.875584	0.084895	0.331159	1741.487793
8936.876514	0.084869	0.331159	1820.416260
8936.877411	0.084954	0.331159	1896.619629
8937.894352	1.168700	0.325846	514.227966
8937.895268	0.671404	0.325846	1129.233887
8937.896158	0.087609	0.325846	1207.205566
8937.897102	0.085005	0.325846	1287.450195
8937.898010	0.084939	0.325846	1364.574829
8937.898904	0.084917	0.325846	1440.490601
8937.899792	0.084954	0.325846	1515.929443
8937.900733	0.084998	0.325846	1595.912109
8937.901642	0.084921	0.325846	1673.104980
8937.902549	0.084913	0.325846	1750.121338
8937.903442	0.084910	0.325846	1825.945679
8937.904386	0.084928	0.325846	1906.117676
8938.934727	1.160072	0.329544	503.471222
8938.935679	0.616619	0.329544	1090.492187
8938.936629	0.086272	0.329544	1172.450562
8938.937551	0.084917	0.329544	1250.744019
8938.938443	0.084961	0.329544	1326.529175
8938.939395	0.084935	0.329544	1407.387573
8938.940340	0.084921	0.329544	1487.637573
8938.941250	0.084917	0.329544	1564.911987
8938.942147	0.084913	0.329544	1641.079224
8938.943087	0.084825	0.329544	1720.815186
8938.944017	0.084954	0.329544	1799.822021
8938.944919	0.084932	0.329544	1876.430420
8939.962833	1.166448	0.329354	513.237000
8939.963727	0.699976	0.329354	1139.015137
8939.964705	0.086752	0.329354	1223.858276
8939.965607	0.084873	0.329354	1300.413818
8939.966530	0.084979	0.329354	1378.849609
8939.967430	0.084917	0.329354	1455.274902
8939.968394	0.084954	0.329354	1537.170166
8939.969307	0.084899	0.329354	1614.682617
8939.970204	0.084921	0.329354	1690.856445
8939.971137	0.084994	0.329354	1770.155762
8939.972055	0.084924	0.329354	1848.116333
8939.972971	0.084998	0.329354	1925.974121
8941.003257	1.178580	0.327731	572.790039
8941.004182	0.601080	0.327731	1128.789307
8941.005077	0.086484	0.327731	1206.192871
8941.005966	0.084862	0.327731	1281.635254
8941.006902	0.084976	0.327731	1361.172363
8941.007820	0.084913	0.327731	1439.122803
8941.008719	0.084994	0.327731	1515.532349
8941.009606	0.084950	0.327731	1590.882935
8941.010562	0.084954	0.327731	1672.098633
8941.011468	0.084921	0.327731	1749.036743
8941.012360	0.084888	0.327731	1824.756592
8941.013287	0.084946	0.327731	1903.501831
8942.029291	1.192416	0.332976	554.473328
8942.030213	0.616095	0.332976	1122.512939
8942.031104	0.087012	0.332976	1200.040405
8942.032025	0.084888	0.332976	1278.221924
8942.032976	0.084932	0.332976	1358.991943
8942.033893	0.084954	0.332976	1436.894409
8942.034785	0.084994	0.332976	1512.708984
8942.035732	0.084869	0.332976	1593.080322
8942.036670	0.084921	0.332976	1672.735840
8942.037561	0.084987	0.332976	1748.458862
8942.038476	0.084891	0.332976	1826.134399
8942.039418	0.084928	0.332976	1906.136597
8943.072723	1.163148	0.326788	510.622101
8943.073622	0.686774	0.326788	1128.031616
8943.074582	0.086572	0.326788	1211.140991
8943.075514	0.084899	0.326788	1290.266602
8943.076403	0.084935	0.326788	1365.774048
8943.077332	0.084943	0.326788	1444.685791
8943.078250	0.084921	0.326788	1522.642944
8943.079167	0.084950	0.326788	1600.541992
8943.080058	0.084928	0.326788	1676.212769
8943.081003	0.084825	0.326788	1756.372803
8943.081905	0.084917	0.326788	1832.967896
8943.082821	0.084880	0.326788	1910.718262
8944.095693	1.178979	0.336601	518.750916
8944.096673	0.567784	0.336601	1075.179687
8944.097589	0.086246	0.336601	1154.181274
8944.098484	0.084954	0.336601	1230.214722
8944.099423	0.084917	0.336601	1309.951782
8944.100319	0.084913	0.336601	1386.034180
8944.101216	0.084957	0.336601	1462.240845
8944.102104	0.084939	0.336601	1537.666626
8944.103046	0.084954	0.336601	1617.692871
8944.103953	0.084928	0.336601	1694.722534
8944.104857	0.084983	0.336601	1771.547119
8944.105770	0.084943	0.336601	1849.099731
8945.143288	1.197308	0.327388	571.116089
8945.144202	0.607020	0.327388	1125.932617
8945.145128	0.086825	0.327388	1206.332520
8945.146069	0.084895	0.327388	1286.218750
8945.146989	0.084946	0.327388	1364.369385
8945.147877	0.084917	0.327388	1439.775635
8945.148809	0.084939	0.327388	1518.938721
8945.149745	0.084880	0.327388	1598.386719
8945.150647	0.084906	0.327388	1674.971924
8945.151570	0.084924	0.327388	1753.357056
8945.152506	0.084913	0.327388	1832.835937
8945.153419	0.084943	0.327388	1910.388550
8946.161118	1.178595	0.336799	532.724915
8946.162024	0.659927	0.336799	1130.618652
8946.162914	0.087568	0.336799	1208.554443
8946.163865	0.084847	0.336799	1289.244385
8946.164775	0.084983	0.336799	1366.578857
8946.165698	0.084902	0.336799	1444.943726
8946.166592	0.085016	0.336799	1520.947876
8946.167542	0.084935	0.336799	1601.636475
8946.168466	0.084873	0.336799	1680.059204
8946.169357	0.084979	0.336799	1755.775757
8946.170268	0.084888	0.336799	1833.108398
8946.171201	0.084917	0.336799	1912.335937
8947.211729	1.164825	0.329552	514.852844
8947.212682	0.605907	0.329552	1092.282227
8947.213594	0.086678	0.329552	1171.333008
8947.214499	0.084987	0.329552	1248.245850
8947.215390	0.084943	0.329552	1323.929687
8947.216341	0.085009	0.329552	1404.772827
8947.217246	0.084954	0.329552	1481.655884
8947.218144	0.084976	0.329552	1557.963989
8947.219080	0.085089	0.329552	1637.607422
8947.219986	0.085060	0.329552	1714.671631
8947.220889	0.084968	0.329552	1791.397949
8947.221779	0.084932	0.329552	1866.987061
8948.229586	1.167872	0.331800	518.535278
8948.230479	0.687894	0.331800	1132.824951
8948.231451	0.086635	0.331800	1217.033691
8948.232372	0.084877	0.331800	1295.205078
8948.233293	0.085005	0.331800	1373.494629
8948.234182	0.084862	0.331800	1448.937012
8948.235124	0.084910	0.331800	1528.921875
8948.236065	0.084968	0.331800	1608.876953
8948.236955	0.084924	0.331800	1684.459595
8948.237876	0.084961	0.331800	1762.708618
8948.238799	0.084968	0.331800	1841.134277
8948.239712	0.085027	0.331800	1918.763794
8949.279173	1.156139	0.333177	500.608154
8949.280122	0.652130	0.333177	1119.479614
8949.281034	0.086638	0.333177	1198.493652
8949.281957	0.084928	0.333177	1276.882202
8949.282850	0.084972	0.333177	1352.762085
8949.283799	0.084924	0.333177	1433.355225
8949.284723	0.084913	0.333177	1511.815186
8949.285646	0.085020	0.333177	1590.288208
8949.286534	0.084873	0.333177	1665.655518
8949.287473	0.084943	0.333177	1745.416626
8949.288394	0.085020	0.333177	1823.719604
8949.289291	0.085052	0.333177	1900.011719
8950.299132	1.196470	0.328182	583.877197
8950.300060	0.586296	0.328182	1127.960205
8950.300952	0.086561	0.328182	1205.172852
8950.301842	0.084833	0.328182	1280.674072
8950.302782	0.084979	0.328182	1360.554565
8950.303683	0.084811	0.328182	1436.969116
8950.304584	0.084913	0.328182	1513.476074
8950.305474	0.084833	0.328182	1588.977295
8950.306414	0.084972	0.328182	1668.850952
8950.307323	0.084961	0.328182	1746.080444
8950.308215	0.084935	0.328182	1821.842773
8950.309151	0.085001	0.328182	1901.403931
8951.344626	1.179060	0.339143	562.411682
8951.345574	0.575643	0.339143	1108.121582
8951.346497	0.086096	0.339143	1187.588379
8951.347389	0.084928	0.339143	1263.344116
8951.348332	0.084862	0.339143	1343.369019
8951.349256	0.084917	0.339143	1421.832275
8951.350177	0.084968	0.339143	1500.088013
8951.351072	0.084869	0.339143	1576.046143
8951.352024	0.084858	0.339143	1656.831299
8951.352955	0.084869	0.339143	1735.844727
8951.353855	0.084884	0.339143	1812.240356
8951.354773	0.084910	0.339143	1890.187378
8952.369611	1.159955	0.327489	510.380096
8952.370597	0.605178	0.327489	1107.085815
8952.371511	0.086012	0.327489	1185.700684
8952.372405	0.084965	0.327489	1261.659058
8952.373327	0.084891	0.327489	1339.928833
8952.374255	0.084877	0.327489	1418.694458
8952.375185	0.085009	0.327489	1497.752441
8952.376083	0.084983	0.327489	1574.067139
8952.376996	0.084899	0.327489	1651.579590
8952.377929	0.084965	0.327489	1730.851562
8952.378874	0.084979	0.327489	1811.156982
8952.379763	0.085020	0.327489	1886.739380
8953.411030	1.168608	0.337850	520.030701
8953.411927	0.689572	0.337850	1138.576416
8953.412870	0.086858	0.337850	1220.483398
8953.413788	0.084943	0.337850	1298.460693
8953.414716	0.084979	0.337850	1377.321411
8953.415608	0.085009	0.337850	1453.149048
8953.416557	0.084954	0.337850	1533.770020
8953.417456	0.084924	0.337850	1610.116943
8953.418342	0.085012	0.337850	1685.437744
8953.419271	0.085063	0.337850	1764.461670
8953.420165	0.084965	0.337850	1840.420044
8953.421080	0.085012	0.337850	1918.206177
8954.438145	1.185392	0.332049	583.212769
8954.439077	0.558021	0.332049	1103.288574
8954.439985	0.086272	0.332049	1181.623535
8954.440888	0.085012	0.332049	1258.389526
8954.441845	0.085056	0.332049	1339.788330
8954.442744	0.085056	0.332049	1416.253784
8954.443641	0.084976	0.332049	1492.476929
8954.444529	0.084902	0.332049	1567.870239
8954.445471	0.084998	0.332049	1647.937988
8954.446379	0.084928	0.332049	1725.052612
8954.447276	0.085023	0.332049	1801.318359
8954.448212	0.084998	0.332049	1880.876099
8955.478486	1.161277	0.335550	512.123047
8955.479395	0.678885	0.335550	1129.229980
8955.480328	0.087773	0.335550	1211.122559
8955.481277	0.084807	0.335550	1291.604492
8955.482195	0.084847	0.335550	1369.494385
8955.483083	0.084851	0.335550	1444.842163
8955.484025	0.084851	0.335550	1524.771851
8955.484952	0.084781	0.335550	1603.364258
8955.485858	0.084844	0.335550	1680.232666
8955.486758	0.084829	0.335550	1756.578857
8955.487702	0.084891	0.335550	1836.716309
8955.488634	0.084825	0.335550	1915.773560
8956.506602	1.181917	0.335977	544.863525
8956.507515	0.644319	0.335977	1133.126587
8956.508405	0.087264	0.335977	1210.791870
8956.509352	0.084965	0.335977	1291.253296
8956.510248	0.084877	0.335977	1367.302856
8956.511166	0.084939	0.335977	1445.276855
8956.512065	0.084917	0.335977	1521.617187
8956.513007	0.084921	0.335977	1601.612427
8956.513912	0.084829	0.335977	1678.382812
8956.514830	0.084939	0.335977	1756.356812
8956.515719	0.084935	0.335977	1831.864258
8956.516674	0.084943	0.335977	1912.984497
8957.548041	1.204984	0.331167	602.492004
8957.548959	0.577947	0.331167	1133.047119
8957.549861	0.086521	0.331167	1211.089111
8957.550750	0.084957	0.331167	1286.616089
8957.551684	0.085049	0.331167	1366.051636
8957.552592	0.084976	0.331167	1443.209473
8957.553495	0.084983	0.331167	1519.949097
8957.554394	0.084954	0.331167	1596.322388
8957.555340	0.085052	0.331167	1676.781982
8957.556246	0.084983	0.331167	1753.776489
8957.557146	0.084998	0.331167	1830.274292
8957.558089	0.085082	0.331167	1910.506470
8958.571982	1.156871	0.338958	507.866516
8958.572876	0.702349	0.338958	1135.766235
8958.573826	0.087261	0.338958	1218.663940
8958.574748	0.084939	0.338958	1296.977661
8958.575645	0.084968	0.338958	1373.194214
8958.576562	0.084943	0.338958	1451.086548
8958.577496	0.084862	0.338958	1530.347656
8958.578412	0.084902	0.338958	1608.118164
8958.579301	0.084880	0.338958	1683.576782
8958.580236	0.084884	0.338958	1762.943359
8958.581150	0.084939	0.338958	1840.577637
8958.582086	0.084862	0.338958	1920.008545
8959.617484	1.162247	0.332577	509.064331
8959.618380	0.701971	0.332577	1138.030762
8959.619330	0.086906	0.332577	1220.591064
8959.620238	0.084844	0.332577	1297.629150
8959.621155	0.084917	0.332577	1375.498047
8959.622044	0.084939	0.332577	1451.008789
8959.623000	0.084895	0.332577	1532.168457
8959.623926	0.084924	0.332577	1610.808350
8959.624820	0.084943	0.332577	1686.747070
8959.625767	0.084939	0.332577	1767.184326
8959.626689	0.084862	0.332577	1845.427124
8959.627606	0.084928	0.332577	1923.306030
8960.638429	1.183308	0.340686	532.488647
8960.639354	0.636262	0.340686	1121.031250
8960.640253	0.087275	0.340686	1199.491821
8960.641206	0.085005	0.340686	1280.501465
8960.642101	0.084946	0.340686	1356.528442
8960.643003	0.084906	0.340686	1433.113647
8960.643889	0.084946	0.340686	1508.376099
8960.644821	0.085027	0.340686	1587.621094
8960.645735	0.084932	0.340686	1665.248657
8960.646637	0.084910	0.340686	1741.837158
8960.647530	0.084910	0.340686	1817.661499
8960.648486	0.085027	0.340686	1898.947144
8961.687014	1.180338	0.332134	528.791504
8961.687963	0.599729	0.332134	1097.934326
8961.688884	0.086323	0.332134	1177.437988
8961.689778	0.084906	0.332134	1253.343994
8961.690740	0.084946	0.332134	1335.062378
8961.691647	0.084983	0.332134	1412.141846
8961.692555	0.084888	0.332134	1489.219849
8961.693447	0.084866	0.332134	1564.920044
8961.694384	0.084972	0.332134	1644.538696
8961.695288	0.084990	0.332134	1721.369873
8961.696193	0.084939	0.332134	1798.239624
8961.697083	0.084943	0.332134	1873.838623
8962.705919	1.232003	0.339816	603.681580
8962.706857	0.562665	0.339816	1131.461182
8962.707778	0.086019	0.339816	1210.684937
8962.708668	0.084884	0.339816	1286.231689
8962.709608	0.084899	0.339816	1366.036499
8962.710546	0.084990	0.339816	1445.757324
8962.711460	0.084917	0.339816	1523.371460
8962.712357	0.084913	0.339816	1599.538696
8962.713307	0.084847	0.339816	1680.143799
8962.714245	0.084895	0.339816	1759.775269
8962.715146	0.084954	0.339816	1836.318481
8962.716067	0.084902	0.339816	1914.513550
8963.755499	1.194368	0.334390	549.409119
8963.756404	0.652749	0.334390	1140.146973
8963.757297	0.087385	0.334390	1218.182007
8963.758239	0.085023	0.334390	1298.273804
8963.759139	0.084910	0.334390	1374.692505
8963.760062	0.084976	0.334390	1453.125000
8963.760956	0.084921	0.334390	1529.044067
8963.761900	0.084965	0.334390	1609.250610
8963.762812	0.084858	0.334390	1686.641479
8963.763729	0.084902	0.334390	1764.496948
8963.764618	0.084888	0.334390	1839.962158
8963.765575	0.084891	0.334390	1921.203125
8964.773320	1.157955	0.340634	507.184479
8964.774298	0.578837	0.340634	1073.286743
8964.775201	0.086448	0.340634	1151.349121
8964.776100	0.084939	0.340634	1227.709229
8964.776997	0.084891	0.340634	1303.856812
8964.777948	0.084961	0.340634	1384.654663
8964.778863	0.084866	0.340634	1462.306763
8964.779753	0.084910	0.340634	1537.876343
8964.780691	0.085016	0.340634	1617.621216
8964.781585	0.084979	0.340634	1693.592651
8964.782477	0.084935	0.340634	1769.354980
8964.783365	0.084943	0.340634	1844.784058
8965.822967	1.192200	0.336497	572.255859
8965.823897	0.582220	0.336497	1113.720947
8965.824817	0.086217	0.336497	1193.040649
8965.825715	0.084862	0.336497	1269.246826
8965.826665	0.084869	0.336497	1349.872803
8965.827605	0.084976	0.336497	1429.749878
8965.828504	0.084957	0.336497	1506.126465
8965.829426	0.084946	0.336497	1584.446899
8965.830361	0.084833	0.336497	1663.765503
8965.831296	0.084895	0.336497	1743.142334
8965.832196	0.084939	0.336497	1819.587402
8965.833126	0.084950	0.336497	1898.590820
8966.840787	1.161486	0.338881	513.376587
8966.841684	0.694358	0.338881	1136.215576
8966.842645	0.087122	0.338881	1219.939453
8966.843566	0.084928	0.338881	1298.158081
8966.844458	0.084972	0.338881	1373.953003
8966.845386	0.084873	0.338881	1452.715210
8966.846319	0.084921	0.338881	1531.946167
8966.847249	0.084924	0.338881	1610.925781
8966.848152	0.084961	0.338881	1687.645508
8966.849071	0.084873	0.338881	1765.643799
8966.850008	0.084891	0.338881	1845.187012
8966.850924	0.084972	0.338881	1923.021240
8967.891452	1.182671	0.337121	578.326111
8967.892384	0.556615	0.337121	1097.091309
8967.893304	0.085920	0.337121	1176.138062
8967.894191	0.084906	0.337121	1251.449707
8967.895139	0.084873	0.337121	1331.909302
8967.896052	0.084910	0.337121	1409.431885
8967.896969	0.084917	0.337121	1487.300781
8967.897855	0.084877	0.337121	1562.501587
8967.898793	0.084913	0.337121	1642.150269
8967.899722	0.084891	0.337121	1721.014282
8967.900624	0.084836	0.337121	1797.536743
8967.901559	0.084906	0.337121	1876.923828
8968.909274	1.169594	0.337387	529.825867
8968.910168	0.686158	0.337387	1143.251465
8968.911114	0.087719	0.337387	1226.233154
8968.912020	0.084836	0.337387	1303.094971
8968.912936	0.084873	0.337387	1380.838623
8968.913837	0.084884	0.337387	1457.319092
8968.914791	0.084899	0.337387	1538.312378
8968.915694	0.084895	0.337387	1614.972534
8968.916587	0.084902	0.337387	1690.790283
8968.917497	0.084965	0.337387	1768.108032
8968.918425	0.084869	0.337387	1846.866821
8968.919326	0.084833	0.337387	1923.301147
8969.958861	1.162405	0.338168	512.620483
8969.959753	0.683005	0.338168	1121.861328
8969.960716	0.086821	0.338168	1205.470215
8969.961619	0.084902	0.338168	1282.137085
8969.962518	0.084858	0.338168	1358.424805
8969.963447	0.084961	0.338168	1437.353516
8969.964358	0.084957	0.338168	1514.749634
8969.965260	0.084910	0.338168	1591.338135
8969.966150	0.084844	0.338168	1666.849121
8969.967107	0.084976	0.338168	1748.170776
8969.968003	0.084847	0.338168	1824.194092
8969.968907	0.084880	0.338168	1900.925903
8970.976750	1.191892	0.339022	554.229797
8970.977669	0.616121	0.339022	1120.444580
8970.978561	0.086938	0.339022	1197.993652
8970.979484	0.084807	0.339022	1276.270630
8970.980426	0.084833	0.339022	1356.183105
8970.981343	0.084891	0.339022	1434.028442
8970.982232	0.084847	0.339022	1509.457764
8970.983177	0.084968	0.339022	1589.752808
8970.984102	0.084924	0.339022	1668.307861
8970.984995	0.084957	0.339022	1744.174683
8970.985911	0.084932	0.339022	1821.972046
8970.986854	0.084884	0.339022	1902.017700
8972.027334	1.160204	0.339594	503.528442
8972.028277	0.631758	0.339594	1099.276123
8972.029232	0.086338	0.339594	1181.728760
8972.030148	0.084855	0.339594	1259.455688
8972.031045	0.084822	0.339594	1335.540771
8972.032001	0.084921	0.339594	1416.724854
8972.032944	0.084932	0.339594	1496.815430
8972.033863	0.084906	0.339594	1574.843994
8972.034752	0.084899	0.339594	1650.318970
8972.035701	0.084906	0.339594	1730.894775
8972.036640	0.084902	0.339594	1810.618042
8972.037536	0.084880	0.339594	1886.670898
8973.044184	1.170553	0.341089	517.384399
8973.045092	0.678984	0.341089	1133.902100
8973.045987	0.087751	0.341089	1212.439697
8973.046935	0.084855	0.341089	1292.881958
8973.047838	0.084924	0.341089	1369.568604
8973.048734	0.084928	0.341089	1445.664062
8973.049624	0.084884	0.341089	1521.210815
8973.050555	0.084998	0.341089	1600.343506
8973.051479	0.084866	0.341089	1678.759399
8973.052383	0.084847	0.341089	1755.461426
8973.053273	0.084899	0.341089	1831.021240
8973.054218	0.084884	0.341089	1911.236694
8974.094806	1.166276	0.339461	514.327576
8974.095712	0.676879	0.339461	1127.579590
8974.096669	0.086536	0.339461	1210.394165
8974.097571	0.084954	0.339461	1287.022339
8974.098471	0.084895	0.339461	1363.427856
8974.099363	0.084957	0.339461	1439.209717
8974.100304	0.085001	0.339461	1519.195923
8974.101208	0.084811	0.339461	1595.864868
8974.102104	0.084998	0.339461	1672.022705
8974.103029	0.084950	0.339461	1750.601440
8974.103939	0.084913	0.339461	1827.872559
8974.104843	0.084979	0.339461	1904.693848
8975.112675	1.167817	0.344662	524.349976
8975.113584	0.673202	0.344662	1136.290527
8975.114472	0.087634	0.344662	1214.109741
8975.115409	0.084888	0.344662	1293.649536
8975.116346	0.084906	0.344662	1373.206421
8975.117246	0.084913	0.344662	1449.628418
8975.118163	0.084858	0.344662	1527.443604
8975.119108	0.085005	0.344662	1607.773193
8975.120022	0.084976	0.344662	1685.440918
8975.120913	0.084913	0.344662	1761.098755
8975.121845	0.084965	0.344662	1840.285767
8975.122777	0.084902	0.344662	1919.414795
8976.163272	1.156747	0.338970	505.498322
8976.164254	0.601227	0.338970	1095.903076
8976.165151	0.086400	0.338970	1173.404053
8976.166071	0.084950	0.338970	1251.557983
8976.166961	0.084954	0.338970	1327.166748
8976.167907	0.084844	0.338970	1407.428955
8976.168827	0.084935	0.338970	1485.569458
8976.169728	0.084979	0.338970	1562.135742
8976.170656	0.084917	0.338970	1640.938721
8976.171577	0.084917	0.338970	1719.147217
8976.172507	0.084935	0.338970	1798.137085
8976.173393	0.084921	0.338970	1873.376831
8977.181137	1.160592	0.346354	515.302856
8977.182041	0.679874	0.346354	1129.909180
8977.182967	0.087832	0.346354	1211.241699
8977.183881	0.084906	0.346354	1288.845825
8977.184785	0.084880	0.346354	1365.577637
8977.185675	0.084957	0.346354	1441.189575
8977.186617	0.085020	0.346354	1521.277954
8977.187526	0.084950	0.346354	1598.497437
8977.188424	0.084932	0.346354	1674.766113
8977.189307	0.084877	0.346354	1749.712280
8977.190241	0.084968	0.346354	1829.072632
8977.191151	0.084921	0.346354	1906.350464
8978.229724	1.185201	0.339043	530.970215
8978.230655	0.630721	0.339043	1118.171875
8978.231555	0.086909	0.339043	1196.390137
8978.232494	0.084935	0.339043	1276.144409
8978.233399	0.084888	0.339043	1352.967773
8978.234298	0.084891	0.339043	1429.285156
8978.235185	0.084987	0.339043	1504.668213
8978.236136	0.084979	0.339043	1585.483521
8978.237041	0.085056	0.339043	1662.459351
8978.237942	0.084906	0.339043	1738.959717
8978.238829	0.084924	0.339043	1814.287598
8978.239767	0.085012	0.339043	1894.029053
8979.250633	1.155623	0.348324	503.851440
8979.251620	0.595807	0.348324	1091.912842
8979.252540	0.086107	0.348324	1171.131470
8979.253462	0.084884	0.348324	1249.394531
8979.254351	0.084913	0.348324	1324.882446
8979.255303	0.084891	0.348324	1405.698975
8979.256230	0.084873	0.348324	1484.376221
8979.257126	0.084950	0.348324	1560.491333
8979.258039	0.084990	0.348324	1638.087402
8979.258970	0.084910	0.348324	1717.138306
8979.259909	0.084884	0.348324	1796.844360
8979.260804	0.084976	0.348324	1872.897461
8980.296138	1.154780	0.339377	501.174622
8980.297075	0.681339	0.339377	1139.589355
8980.298007	0.086759	0.339377	1220.448730
8980.298932	0.084888	0.339377	1298.969849
8980.299824	0.084943	0.339377	1374.738647
8980.300746	0.084921	0.339377	1453.035522
8980.301685	0.084891	0.339377	1532.748535
8980.302599	0.084928	0.339377	1610.372681
8980.303502	0.084877	0.339377	1687.016357
8980.304431	0.084844	0.339377	1765.836182
8980.305354	0.084917	0.339377	1844.214600
8980.306261	0.084979	0.339377	1921.290771
8981.319113	1.169520	0.347627	512.249878
8981.320083	0.601476	0.347627	1095.681396
8981.320981	0.086613	0.347627	1173.459473
8981.321873	0.084913	0.347627	1249.202148
8981.322802	0.084990	0.347627	1328.158081
8981.323715	0.084957	0.347627	1405.724121
8981.324614	0.084928	0.347627	1482.074341
8981.325501	0.084873	0.347627	1557.356689
8981.326435	0.085071	0.347627	1636.812866
8981.327330	0.084939	0.347627	1712.833252
8981.328255	0.084987	0.347627	1791.445801
8981.329147	0.084976	0.347627	1867.244019
8982.363623	1.196693	0.340021	554.068909
8982.364526	0.654375	0.340021	1144.969482
8982.365472	0.087323	0.340021	1227.577026
8982.366373	0.084891	0.340021	1304.064087
8982.367272	0.085005	0.340021	1380.483521
8982.368160	0.084921	0.340021	1455.893066
8982.369101	0.084968	0.340021	1535.848145
8982.370005	0.085012	0.340021	1612.699219
8982.370914	0.084965	0.340021	1689.932007
8982.371804	0.084928	0.340021	1765.517944
8982.372757	0.085001	0.340021	1846.524170
8982.373666	0.084913	0.340021	1923.710449
8983.388652	1.199030	0.345943	562.344849
8983.389570	0.616600	0.345943	1128.384033
8983.390459	0.087012	0.345943	1205.737427
8983.391424	0.084961	0.345943	1287.724731
8983.392363	0.084877	0.345943	1367.423950
8983.393265	0.084939	0.345943	1444.038940
8983.394182	0.084928	0.345943	1521.917847
8983.395122	0.084895	0.345943	1601.719116
8983.396050	0.084888	0.345943	1680.494873
8983.396948	0.084928	0.345943	1756.760254
8983.397875	0.084858	0.345943	1835.423950
8983.398799	0.084884	0.345943	1913.856812
8984.430084	1.237797	0.344585	615.184937
8984.431008	0.567136	0.344585	1139.218750
8984.431935	0.085880	0.344585	1218.829590
8984.432824	0.084873	0.344585	1294.281738
8984.433774	0.084822	0.344585	1374.862427
8984.434695	0.084858	0.344585	1453.016968
8984.435586	0.084906	0.344585	1528.668213
8984.436514	0.084935	0.344585	1607.488159
8984.437445	0.084869	0.344585	1686.501587
8984.438366	0.084906	0.344585	1764.700073
8984.439247	0.084932	0.344585	1839.524902
8984.440192	0.084913	0.344585	1919.768066
8985.458128	1.167210	0.342648	517.073792
8985.459021	0.682072	0.342648	1126.163696
8985.460000	0.086418	0.342648	1210.767334
8985.460893	0.084869	0.342648	1286.555664
8985.461783	0.084954	0.342648	1362.164429
8985.462734	0.084902	0.342648	1442.906616
8985.463631	0.084943	0.342648	1519.100098
8985.464550	0.084891	0.342648	1597.115234
8985.465442	0.084954	0.342648	1672.893799
8985.466386	0.084932	0.342648	1753.069214
8985.467286	0.084987	0.342648	1829.557129
8985.468213	0.084891	0.342648	1908.251465
8986.498565	1.225452	0.347760	606.598572
8986.499486	0.574427	0.347760	1135.646240
8986.500380	0.086470	0.347760	1212.950195
8986.501269	0.084855	0.347760	1288.386108
8986.502213	0.084935	0.347760	1368.565063
8986.503114	0.084891	0.347760	1445.052124
8986.504012	0.084961	0.347760	1521.347046
8986.504936	0.084921	0.347760	1599.813721
8986.505848	0.085005	0.347760	1677.338135
8986.506757	0.084913	0.347760	1754.524414
8986.507658	0.084928	0.347760	1831.044556
8986.508603	0.084943	0.347760	1911.315308
8987.524612	1.198008	0.341536	589.419861
8987.525551	0.562430	0.341536	1117.541992
8987.526438	0.086360	0.341536	1194.143188
8987.527361	0.084796	0.341536	1272.410034
8987.528307	0.084932	0.341536	1352.755371
8987.529226	0.084943	0.341536	1430.817627
8987.530126	0.084858	0.341536	1507.190186
8987.531078	0.084869	0.341536	1587.985840
8987.532025	0.085027	0.341536	1668.506226
8987.532919	0.084976	0.341536	1744.474365
8987.533839	0.084906	0.341536	1822.587891
8987.534779	0.084990	0.341536	1902.478760
8988.567038	1.184586	0.350161	568.601379
8988.567945	0.620566	0.350161	1131.455078
8988.568837	0.086902	0.350161	1208.971558
8988.569757	0.084771	0.350161	1286.960449
8988.570684	0.084902	0.350161	1365.664917
8988.571598	0.084858	0.350161	1443.225464
8988.572497	0.084884	0.350161	1519.536255
8988.573452	0.084877	0.350161	1600.593506
8988.574385	0.084877	0.350161	1679.783447
8988.575300	0.084917	0.350161	1757.482544
8988.576190	0.084877	0.350161	1833.022827
8988.577126	0.084840	0.350161	1912.433105
8989.590985	1.162108	0.343449	510.165497
8989.591939	0.631194	0.343449	1112.324341
8989.592859	0.086422	0.343449	1191.832642
8989.593759	0.084891	0.343449	1268.234863
8989.594648	0.084998	0.343449	1343.797729
8989.595606	0.084946	0.343449	1425.176270
8989.596493	0.084873	0.343449	1500.458618
8989.597415	0.084888	0.343449	1578.725098
8989.598309	0.084913	0.343449	1654.637573
8989.599252	0.084957	0.343449	1734.752319
8989.600157	0.084924	0.343449	1811.608887
8989.601049	0.084899	0.343449	1887.338501
8990.636486	1.154088	0.348908	499.720154
8990.637435	0.630476	0.348908	1098.041992
8990.638381	0.086261	0.348908	1179.644897
8990.639298	0.084906	0.348908	1257.503662
8990.640186	0.084939	0.348908	1332.929443
8990.641137	0.085012	0.348908	1413.776001
8990.642044	0.085001	0.348908	1490.872070
8990.642943	0.084917	0.348908	1567.212402
8990.643836	0.084961	0.348908	1643.082520
8990.644775	0.085009	0.348908	1722.905518
8990.645681	0.084950	0.348908	1799.870117
8990.646585	0.084946	0.348908	1876.661621
8991.657434	1.169224	0.346870	527.319885
8991.658332	0.683423	0.346870	1141.033691
8991.659285	0.087576	0.346870	1224.493286
8991.660179	0.084855	0.346870	1300.353394
8991.661097	0.084943	0.346870	1378.330688
8991.661994	0.084877	0.346870	1454.465088
8991.662945	0.084990	0.346870	1535.290771
8991.663860	0.084825	0.346870	1612.906006
8991.664749	0.084924	0.346870	1688.403687
8991.665652	0.084869	0.346870	1765.040771
8991.666591	0.084906	0.346870	1844.767456
8991.667510	0.084965	0.346870	1922.849976
8992.707014	1.154593	0.348058	501.093567
8992.708001	0.588900	0.348058	1082.338013
8992.708910	0.086334	0.348058	1160.815796
8992.709810	0.084994	0.348058	1237.310303
8992.710699	0.084950	0.348058	1312.830811
8992.711650	0.084987	0.348058	1393.653076
8992.712555	0.084910	0.348058	1470.496338
8992.713455	0.084899	0.348058	1546.905151
8992.714385	0.084954	0.348058	1625.911987
8992.715294	0.085089	0.348058	1703.257935
8992.716193	0.084862	0.348058	1779.548950
8992.717079	0.084880	0.348058	1854.752930
8993.723868	1.167722	0.349484	523.139526
8993.724774	0.673110	0.349484	1132.977539
8993.725666	0.087598	0.349484	1211.114624
8993.726593	0.084829	0.349484	1289.751221
8993.727532	0.084884	0.349484	1369.457275
8993.728449	0.085005	0.349484	1447.406738
8993.729338	0.084965	0.349484	1522.940308
8993.730283	0.084932	0.349484	1603.200684
8993.731214	0.084943	0.349484	1682.282227
8993.732114	0.084965	0.349484	1758.750366
8993.733019	0.084983	0.349484	1835.659912
8993.733960	0.084976	0.349484	1915.621948
8994.774471	1.156996	0.344287	503.293213
8994.775418	0.667921	0.344287	1135.814453
8994.776339	0.086550	0.344287	1215.527222
8994.777266	0.084943	0.344287	1294.269043
8994.778158	0.084917	0.344287	1370.015015
8994.779094	0.085012	0.344287	1449.586426
8994.780009	0.085001	0.344287	1527.362549
8994.780929	0.084979	0.344287	1605.543457
8994.781819	0.084913	0.344287	1681.116333
8994.782779	0.084902	0.344287	1762.622559
8994.783696	0.084950	0.344287	1840.521606
8994.784584	0.084968	0.344287	1915.973389
8995.792341	1.172659	0.351981	526.523743
8995.793251	0.672224	0.351981	1138.247681
8995.794141	0.087825	0.351981	1216.411621
8995.795097	0.084961	0.351981	1297.634277
8995.795995	0.084932	0.351981	1373.902832
8995.796884	0.084880	0.351981	1449.361450
8995.797811	0.084950	0.351981	1528.110107
8995.798724	0.084957	0.351981	1605.676147
8995.799636	0.084954	0.351981	1683.153809
8995.800528	0.084950	0.351981	1758.929199
8995.801464	0.085009	0.351981	1838.497192
8995.802382	0.084862	0.351981	1916.400513
8996.840922	1.163243	0.344025	519.969788
8996.841826	0.680786	0.344025	1135.400391
8996.842714	0.087957	0.344025	1213.505859
8996.843668	0.084869	0.344025	1294.471191
8996.844599	0.084891	0.344025	1373.505005
8996.845501	0.084924	0.344025	1450.106689
8996.846423	0.084910	0.344025	1528.393433
8996.847348	0.084851	0.344025	1606.880615
8996.848266	0.084913	0.344025	1684.831055
8996.849164	0.084917	0.344025	1761.086548
8996.850104	0.084858	0.344025	1840.853394
8996.851041	0.084972	0.344025	1920.472046
8997.861888	1.180375	0.356070	578.383606
8997.862816	0.593353	0.356070	1129.015381
8997.863744	0.086125	0.356070	1208.939819
8997.864635	0.084972	0.356070	1284.649780
8997.865578	0.084968	0.356070	1364.774902
8997.866477	0.084972	0.356070	1441.164673
8997.867399	0.084972	0.356070	1519.508789
8997.868287	0.084939	0.356070	1594.934570
8997.869242	0.084888	0.356070	1676.002319
8997.870164	0.084957	0.356070	1754.332886
8997.871057	0.084987	0.356070	1830.225952
8997.871995	0.084957	0.356070	1909.915894
8998.908385	1.186908	0.344819	536.482361
8998.909290	0.664116	0.344819	1137.507568
8998.910182	0.087649	0.344819	1215.690430
8998.911117	0.084957	0.344819	1295.125488
8998.912035	0.084961	0.344819	1373.119629
8998.912939	0.084954	0.344819	1449.917725
8998.913831	0.084913	0.344819	1525.660400
8998.914777	0.084965	0.344819	1606.036865
8998.915683	0.084873	0.344819	1682.931885
8998.916572	0.085034	0.344819	1758.527222
8998.917509	0.085012	0.344819	1838.183594
8998.918410	0.084902	0.344819	1914.680664
8999.931353	1.181602	0.353750	529.357483
8999.932258	0.675663	0.353750	1140.832397
8999.933148	0.087887	0.353750	1219.051758
8999.934098	0.085023	0.353750	1299.823730
8999.934999	0.084990	0.353750	1376.399902
8999.935904	0.084965	0.353750	1453.292847
8999.936795	0.084954	0.353750	1528.986572
8999.937735	0.085042	0.353750	1608.925537
8999.938639	0.084895	0.353750	1685.670654
8999.939526	0.084928	0.353750	1761.001709
8999.940466	0.085001	0.353750	1840.902832
8999.941374	0.084924	0.353750	1918.014160
9000.974794	1.160475	0.346591	507.127472
9000.975771	0.601893	0.346591	1095.177246
9000.976697	0.086067	0.346591	1174.875244
9000.977615	0.084910	0.346591	1252.822266
9000.978510	0.084888	0.346591	1328.796753
9000.979462	0.084935	0.346591	1409.655151
9000.980396	0.084935	0.346591	1488.984741
9000.981300	0.084965	0.346591	1565.792725
9000.982217	0.084836	0.346591	1643.587769
9000.983152	0.084895	0.346591	1722.964600
9000.984073	0.084921	0.346591	1801.176514
9000.984962	0.084862	0.346591	1876.618896
9001.999819	1.164749	0.355063	511.324615
9002.000713	0.685499	0.355063	1124.160889
9002.001706	0.086345	0.355063	1209.901733
9002.002606	0.084862	0.355063	1286.277588
9002.003499	0.084968	0.355063	1362.154297
9002.004450	0.084998	0.355063	1442.986938
9002.005362	0.084979	0.355063	1520.488037
9002.006275	0.084932	0.355063	1598.030640
9002.007171	0.084994	0.355063	1674.185181
9002.008115	0.085023	0.355063	1754.447021
9002.009021	0.084932	0.355063	1831.395142
9002.009945	0.084935	0.355063	1909.875366
9003.043329	1.186436	0.347232	581.353455
9003.044259	0.561046	0.347232	1103.126343
9003.045158	0.086396	0.347232	1180.796753
9003.046053	0.084965	0.347232	1256.840088
9003.046998	0.084957	0.347232	1337.124756
9003.047901	0.084954	0.347232	1413.837891
9003.048800	0.084917	0.347232	1490.178223
9003.049686	0.084976	0.347232	1565.466553
9003.050620	0.084976	0.347232	1644.833740
9003.051526	0.084902	0.347232	1721.755249
9003.052430	0.085001	0.347232	1798.596313
9003.053361	0.084972	0.347232	1877.705200
9004.068338	1.171436	0.354918	557.603333
9004.069274	0.599297	0.354918	1118.545166
9004.070198	0.086239	0.354918	1198.229980
9004.071086	0.084954	0.354918	1273.668823
9004.072018	0.084858	0.354918	1352.756836
9004.072959	0.084943	0.354918	1432.687866
9004.073878	0.085056	0.354918	1510.854492
9004.074769	0.084950	0.354918	1586.544922
9004.075722	0.084880	0.354918	1667.435913
9004.076651	0.084877	0.354918	1746.286377
9004.077549	0.084987	0.354918	1822.604370
9004.078477	0.084902	0.354918	1901.393799
9005.109713	1.164240	0.347425	512.265381
9005.110666	0.661271	0.347425	1142.456421
9005.111572	0.086605	0.347425	1220.920776
9005.112477	0.084939	0.347425	1297.790527
9005.113369	0.085020	0.347425	1373.627930
9005.114300	0.085012	0.347425	1452.774292
9005.115202	0.085016	0.347425	1529.458618
9005.116121	0.085009	0.347425	1607.581421
9005.117007	0.085001	0.347425	1682.892456
9005.117962	0.084972	0.347425	1764.040649
9005.118859	0.084950	0.347425	1840.240723
9005.119751	0.084968	0.347425	1916.032471
9006.135794	1.223624	0.354028	583.668823
9006.136737	0.562712	0.354028	1114.306641
9006.137663	0.085994	0.354028	1193.936768
9006.138554	0.084950	0.354028	1269.627197
9006.139478	0.084866	0.354028	1348.043091
9006.140421	0.084976	0.354028	1428.175049
9006.141336	0.084913	0.354028	1505.870728
9006.142223	0.084943	0.354028	1581.214844
9006.143160	0.084957	0.354028	1660.819824
9006.144096	0.084928	0.354028	1740.312378
9006.144988	0.085012	0.354028	1816.143311
9006.145905	0.084877	0.354028	1893.975220
9007.178235	1.235966	0.349726	600.679260
9007.179171	0.549507	0.349726	1115.017578
9007.180097	0.085847	0.349726	1194.512085
9007.180988	0.084968	0.349726	1270.218750
9007.181908	0.084800	0.349726	1348.234619
9007.182847	0.084928	0.349726	1427.981934
9007.183769	0.084965	0.349726	1506.319336
9007.184661	0.084869	0.349726	1582.022827
9007.185616	0.084917	0.349726	1663.118530
9007.186551	0.084928	0.349726	1742.526245
9007.187445	0.084855	0.349726	1818.386353
9007.188368	0.084866	0.349726	1896.717407
9008.203212	1.160222	0.356405	512.818176
9008.204201	0.536528	0.356405	1043.444702
9008.205114	0.086166	0.356405	1122.114014
9008.206004	0.084932	0.356405	1197.703125
9008.206931	0.085118	0.356405	1276.607910
9008.207846	0.084950	0.356405	1354.337158
9008.208739	0.084946	0.356405	1430.194214
9008.209628	0.084972	0.356405	1505.734253
9008.210555	0.084968	0.356405	1584.499878
9008.211464	0.084954	0.356405	1661.722656
9008.212387	0.084902	0.356405	1740.087524
9008.213284	0.084965	0.356405	1816.300781
9009.246678	1.173995	0.349883	518.905945
9009.247601	0.659348	0.349883	1127.484253
9009.248495	0.087440	0.349883	1205.655762
9009.249446	0.084987	0.349883	1286.478027
9009.250348	0.085038	0.349883	1363.182129
9009.251246	0.084957	0.349883	1439.473755
9009.252141	0.084976	0.349883	1515.526855
9009.253074	0.084979	0.349883	1594.812500
9009.253977	0.084943	0.349883	1671.515625
9009.254882	0.084946	0.349883	1748.391968
9009.255772	0.084910	0.349883	1823.961548
9009.256713	0.085042	0.349883	1903.985596
9010.271741	1.186527	0.357029	579.025269
9010.272679	0.563060	0.357029	1107.175781
9010.273594	0.086078	0.357029	1185.937012
9010.274486	0.084906	0.357029	1261.673218
9010.275419	0.084899	0.357029	1340.883667
9010.276355	0.084979	0.357029	1420.424194
9010.277253	0.084950	0.357029	1496.709229
9010.278168	0.084968	0.357029	1574.455200
9010.279105	0.084954	0.357029	1654.056763
9010.280027	0.084961	0.357029	1732.390747
9010.280915	0.085042	0.357029	1807.907593
9010.281853	0.084979	0.357029	1887.618164
9011.315157	1.173552	0.349790	526.924988
9011.316063	0.684005	0.349790	1146.633667
9011.316968	0.087854	0.349790	1226.141602
9011.317914	0.084869	0.349790	1306.427979
9011.318838	0.084851	0.349790	1384.830322
9011.319746	0.084924	0.349790	1461.941650
9011.320687	0.084932	0.349790	1541.862305
9011.321597	0.084895	0.349790	1619.116821
9011.322519	0.084910	0.349790	1697.403564
9011.323409	0.084884	0.349790	1772.950317
9011.324362	0.084844	0.349790	1853.806396
9011.325287	0.084873	0.349790	1932.313965
9012.338125	1.162687	0.358205	510.419525
9012.339075	0.667262	0.358205	1144.318359
9012.339986	0.086675	0.358205	1223.279053
9012.340886	0.084899	0.358205	1299.687866
9012.341776	0.084935	0.358205	1375.280273
9012.342740	0.084957	0.358205	1457.179077
9012.343638	0.084972	0.358205	1533.483887
9012.344539	0.084921	0.358205	1609.997437
9012.345424	0.084895	0.358205	1685.129517
9012.346352	0.085038	0.358205	1764.044678
9012.347262	0.084932	0.358205	1841.332520
9012.348170	0.084913	0.358205	1918.433838
9013.384674	1.174340	0.348602	540.196228
9013.385632	0.561863	0.348602	1078.460815
9013.386564	0.085869	0.348602	1158.490845
9013.387454	0.084913	0.348602	1234.063721
9013.388376	0.084910	0.348602	1312.350464
9013.389317	0.084891	0.348602	1392.233276
9013.390235	0.084913	0.348602	1470.183716
9013.391123	0.084928	0.348602	1545.599731
9013.392068	0.084873	0.348602	1625.804810
9013.393010	0.084866	0.348602	1705.748291
9013.393901	0.084987	0.348602	1781.471313
9013.394828	0.084979	0.348602	1860.247070
9014.405590	1.173809	0.360244	524.692444
9014.406485	0.680614	0.360244	1133.842041
9014.407461	0.086481	0.360244	1218.247192
9014.408382	0.084957	0.360244	1296.492798
9014.409271	0.084939	0.360244	1372.003540
9014.410207	0.084935	0.360244	1451.502930
9014.411117	0.084902	0.360244	1528.764038
9014.412041	0.084891	0.360244	1607.203613
9014.412934	0.085009	0.360244	1683.116211
9014.413865	0.084877	0.360244	1762.136475
9014.414781	0.084983	0.360244	1839.980835
9014.415709	0.085042	0.360244	1918.899292
9015.453162	1.198674	0.349593	551.390198
9015.454074	0.650574	0.349593	1144.713379
9015.454963	0.087502	0.349593	1222.503052
9015.455915	0.084950	0.349593	1303.375366
9015.456830	0.085020	0.349593	1381.168213
9015.457721	0.084888	0.349593	1456.803101
9015.458613	0.084943	0.349593	1532.571899
9015.459544	0.084990	0.349593	1611.697754
9015.460461	0.084954	0.349593	1689.600220
9015.461362	0.084921	0.349593	1766.113770
9015.462251	0.084972	0.349593	1841.653809
9015.463207	0.084954	0.349593	1922.869507
9016.473040	1.157860	0.360022	507.142761
9016.473933	0.702023	0.360022	1134.049072
9016.474891	0.087151	0.360022	1217.539551
9016.475816	0.084851	0.360022	1296.026855
9016.476709	0.084987	0.360022	1371.919922
9016.477624	0.084825	0.360022	1449.535156
9016.478566	0.084869	0.360022	1529.482178
9016.479496	0.084891	0.360022	1608.431152
9016.480396	0.084998	0.360022	1684.928955
9016.481317	0.084924	0.360022	1763.144287
9016.482266	0.084877	0.360022	1843.692261
9016.483186	0.084924	0.360022	1921.822632
9017.521622	1.177599	0.351518	532.274658
9017.522516	0.682284	0.351518	1142.236572
9017.523483	0.086960	0.351518	1226.327271
9017.524393	0.084950	0.351518	1303.631714
9017.525308	0.084899	0.351518	1381.313965
9017.526202	0.084998	0.351518	1457.301758
9017.527148	0.084851	0.351518	1537.570923
9017.528074	0.084899	0.351518	1616.187134
9017.528964	0.084935	0.351518	1691.779541
9017.529887	0.084946	0.351518	1770.184937
9017.530811	0.084884	0.351518	1848.617798
9017.531725	0.084862	0.351518	1926.181763
9018.540502	1.169022	0.359265	528.398010
9018.541400	0.675630	0.359265	1135.113647
9018.542340	0.087839	0.359265	1217.682617
9018.543249	0.084932	0.359265	1294.885498
9018.544147	0.084939	0.359265	1371.160645
9018.545035	0.084895	0.359265	1446.547363
9018.545988	0.085045	0.359265	1527.595459
9018.546889	0.084884	0.359265	1604.075928
9018.547800	0.084869	0.359265	1681.391968
9018.548698	0.085027	0.359265	1757.746094
9018.549634	0.084950	0.359265	1837.259277
9018.550540	0.084902	0.359265	1914.180786
9019.589079	1.175658	0.352558	525.519104
9019.589983	0.675201	0.352558	1135.901123
9019.590926	0.086898	0.352558	1217.846069
9019.591869	0.084888	0.352558	1297.895142
9019.592789	0.084957	0.352558	1376.055786
9019.593679	0.084928	0.352558	1451.641724
9019.594633	0.084899	0.352558	1532.635010
9019.595573	0.084983	0.352558	1612.518921
9019.596464	0.084946	0.352558	1688.206055
9019.597388	0.085005	0.352558	1766.750610
9019.598328	0.084972	0.352558	1846.624268
9019.599245	0.084961	0.352558	1924.533447
9020.607992	1.206731	0.357295	578.024109
9020.608897	0.622676	0.357295	1141.545654
9020.609856	0.086642	0.357295	1224.635132
9020.610747	0.084928	0.357295	1300.305908
9020.611661	0.085009	0.357295	1378.003662
9020.612558	0.084873	0.357295	1454.134766
9020.613511	0.084899	0.357295	1535.043213
9020.614432	0.084880	0.357295	1613.218018
9020.615332	0.084932	0.357295	1689.656494
9020.616255	0.085016	0.357295	1768.126099
9020.617184	0.084917	0.357295	1847.013916
9020.618097	0.084888	0.357295	1924.516357
9021.657573	1.190775	0.357420	545.374939
9021.658474	0.664384	0.357420	1143.984497
9021.659420	0.086671	0.357420	1225.975342
9021.660312	0.084869	0.357420	1301.678833
9021.661221	0.084902	0.357420	1378.855103
9021.662121	0.084921	0.357420	1455.283691
9021.663082	0.084862	0.357420	1536.836182
9021.663987	0.084899	0.357420	1613.669434
9021.664875	0.084855	0.357420	1689.020386
9021.665804	0.084979	0.357420	1767.966064
9021.666720	0.084928	0.357420	1845.760132
9021.667644	0.084910	0.357420	1924.216675
9022.677453	1.158896	0.353758	507.596649
9022.678403	0.622068	0.353758	1098.561157
9022.679315	0.086748	0.353758	1177.675415
9022.680221	0.084851	0.353758	1254.550537
9022.681112	0.084935	0.353758	1330.227905
9022.682057	0.084979	0.353758	1410.533325
9022.682962	0.084917	0.353758	1487.383179
9022.683855	0.084979	0.353758	1563.269653
9022.684800	0.084972	0.353758	1643.568115
9022.685695	0.084939	0.353758	1719.588501
9022.686598	0.084943	0.353758	1796.291748
9022.687490	0.084979	0.353758	1872.093262
9023.722958	1.156326	0.358362	507.626984
9023.723897	0.631465	0.358362	1100.572510
9023.724835	0.086334	0.358362	1181.553955
9023.725748	0.084902	0.358362	1259.069824
9023.726646	0.084939	0.358362	1335.344971
9023.727599	0.084928	0.358362	1416.281372
9023.728525	0.084932	0.358362	1494.928101
9023.729444	0.084983	0.358362	1573.027344
9023.730332	0.084829	0.358362	1648.355591
9023.731277	0.084910	0.358362	1728.595215
9023.732213	0.084965	0.358362	1808.122070
9023.733102	0.084957	0.358362	1883.649048
9024.746964	1.161013	0.355236	515.489868
9024.747866	0.691029	0.355236	1138.798096
9024.748754	0.088169	0.355236	1217.092163
9024.749726	0.084917	0.355236	1299.631470
9024.750653	0.084811	0.355236	1378.251099
9024.751546	0.084866	0.355236	1454.036133
9024.752462	0.084888	0.355236	1531.793213
9024.753379	0.084935	0.355236	1609.678833
9024.754299	0.084891	0.355236	1687.778931
9024.755194	0.084924	0.355236	1763.786133
9024.756136	0.084924	0.355236	1843.784790
9024.757047	0.084943	0.355236	1921.167480
9025.789403	1.185685	0.360525	538.300903
9025.790303	0.666951	0.360525	1138.556396
9025.791188	0.087810	0.360525	1216.268311
9025.792145	0.084946	0.360525	1297.561890
9025.793047	0.084891	0.360525	1374.133911
9025.793934	0.084924	0.360525	1449.461792
9025.794866	0.084965	0.360525	1528.648804
9025.795773	0.084994	0.360525	1605.738281
9025.796681	0.084965	0.360525	1682.886108
9025.797577	0.084943	0.360525	1758.994751
9025.798524	0.085038	0.360525	1839.525635
9025.799428	0.084924	0.360525	1916.297241
9026.816458	1.163793	0.355192	509.741211
9026.817439	0.605394	0.355192	1103.633057
9026.818347	0.086140	0.355192	1181.848267
9026.819248	0.084851	0.355192	1258.299072
9026.820166	0.084866	0.355192	1336.205811
9026.821104	0.084902	0.355192	1415.844238
9026.822020	0.084924	0.355192	1493.634888
9026.822914	0.084913	0.355192	1569.547363
9026.823863	0.084858	0.355192	1650.078003
9026.824807	0.084910	0.355192	1730.232788
9026.825706	0.085009	0.355192	1806.655518
9026.826625	0.084968	0.355192	1884.741333
9027.856872	1.198473	0.359107	546.503601
9027.857815	0.604977	0.359107	1116.996704
9027.858702	0.086818	0.359107	1194.003906
9027.859630	0.084990	0.359107	1272.874878
9027.860574	0.084921	0.359107	1353.039917
9027.861486	0.084950	0.359107	1430.514282
9027.862376	0.084932	0.359107	1506.103394
9027.863325	0.084873	0.359107	1586.647949
9027.864257	0.084913	0.359107	1665.787231
9027.865155	0.084976	0.359107	1742.095337
9027.866084	0.085005	0.359107	1821.064819
9027.867014	0.085009	0.359107	1900.122803
9028.884993	1.193210	0.359055	589.445984
9028.885915	0.564525	0.359055	1109.938232
9028.886850	0.085931	0.359055	1190.284058
9028.887738	0.084829	0.359055	1265.612305
9028.888670	0.084987	0.359055	1344.819824
9028.889586	0.084873	0.359055	1422.563477
9028.890503	0.084880	0.359055	1500.398804
9028.891392	0.085052	0.359055	1576.010498
9028.892340	0.084968	0.359055	1656.560425
9028.893235	0.084968	0.359055	1732.607056
9028.894123	0.084983	0.359055	1808.071899
9028.895058	0.084998	0.359055	1887.544678
9029.925327	1.170418	0.358189	516.154114
9029.926233	0.685935	0.358189	1137.611328
9029.927131	0.087946	0.358189	1216.586426
9029.928091	0.084990	0.358189	1298.177002
9029.928998	0.084921	0.358189	1375.200073
9029.929889	0.084891	0.358189	1450.838257
9029.930831	0.084972	0.358189	1530.881836
9029.931735	0.085012	0.358189	1607.732910
9029.932630	0.084935	0.358189	1683.750000
9029.933518	0.084866	0.358189	1759.110718
9029.934448	0.084998	0.358189	1838.158447
9029.935350	0.084943	0.358189	1914.776733
9030.952391	1.162368	0.361468	505.630157
9030.953372	0.579639	0.361468	1074.255737
9030.954296	0.086184	0.361468	1153.889893
9030.955184	0.084928	0.361468	1229.305908
9030.956110	0.084924	0.361468	1307.945801
9030.957053	0.084913	0.361468	1388.019043
9030.957990	0.084939	0.361468	1467.606812
9030.958882	0.085031	0.361468	1543.453979
9030.959800	0.084965	0.361468	1621.451416
9030.960735	0.084961	0.361468	1700.889893
9030.961648	0.084932	0.361468	1778.432495
9030.962546	0.084855	0.361468	1854.632080
9031.992801	1.175636	0.355748	527.860535
9031.993701	0.677062	0.355748	1137.216064
9031.994591	0.087931	0.355748	1215.474609
9031.995557	0.084851	0.355748	1297.440796
9031.996462	0.084906	0.355748	1374.280762
9031.997347	0.084943	0.355748	1449.454956
9031.998263	0.084851	0.355748	1527.178589
9031.999198	0.084880	0.355748	1606.541748
9032.000118	0.084858	0.355748	1684.611450
9032.001014	0.084851	0.355748	1760.638062
9032.001954	0.085001	0.355748	1840.539185
9032.002874	0.084884	0.355748	1918.632446
9033.018849	1.184052	0.364743	545.847778
9033.019742	0.671964	0.364743	1145.911743
9033.020687	0.086722	0.364743	1227.864380
9033.021590	0.085001	0.364743	1304.620483
9033.022500	0.084965	0.364743	1381.938232
9033.023390	0.084928	0.364743	1457.524170
9033.024336	0.085071	0.364743	1538.001099
9033.025244	0.084917	0.364743	1615.105713
9033.026144	0.084895	0.364743	1691.511230
9033.027082	0.085045	0.364743	1771.283569
9033.027984	0.085045	0.364743	1847.994263
9033.028881	0.084899	0.364743	1924.148437
9034.063361	1.221471	0.355087	598.520752
9034.064302	0.559025	0.355087	1124.562988
9034.065191	0.086298	0.355087	1201.281616
9034.066117	0.084840	0.355087	1279.843506
9034.067050	0.084906	0.355087	1359.060791
9034.067957	0.085001	0.355087	1436.156860
9034.068853	0.084895	0.355087	1512.222778
9034.069815	0.084921	0.355087	1593.916504
9034.070762	0.084858	0.355087	1674.277466
9034.071661	0.084979	0.355087	1750.673828
9034.072582	0.084855	0.355087	1828.825073
9034.073515	0.084943	0.355087	1908.076538
9035.085276	1.179847	0.367277	525.032104
9035.086188	0.666973	0.367277	1133.311279
9035.087078	0.087576	0.367277	1211.253662
9035.088001	0.084943	0.367277	1289.655762
9035.088945	0.084895	0.367277	1369.796631
9035.089865	0.084895	0.367277	1447.900024
9035.090756	0.084950	0.367277	1523.590454
9035.091701	0.084807	0.367277	1603.733154
9035.092598	0.084895	0.367277	1679.884033
9035.093509	0.084946	0.367277	1757.270142
9035.094402	0.084899	0.367277	1833.084717
9035.095346	0.084913	0.367277	1913.242920
9036.131796	1.175804	0.355212	525.584595
9036.132696	0.685071	0.355212	1142.148315
9036.133594	0.087971	0.355212	1221.146484
9036.134551	0.084891	0.355212	1302.387451
9036.135449	0.084829	0.355212	1378.563965
9036.136340	0.084932	0.355212	1454.238037
9036.137292	0.085027	0.355212	1535.183594
9036.138197	0.084946	0.355212	1612.059937
9036.139094	0.084906	0.355212	1688.220581
9036.139988	0.084976	0.355212	1764.188721
9036.140923	0.085038	0.355212	1843.699097
9036.141836	0.084891	0.355212	1921.204956
9037.152715	1.162617	0.367426	510.388947
9037.153696	0.572413	0.367426	1071.926392
9037.154593	0.086492	0.367426	1149.509399
9037.155499	0.084858	0.367426	1226.391113
9037.156391	0.084924	0.367426	1302.143555
9037.157335	0.084957	0.367426	1382.343262
9037.158244	0.084792	0.367426	1459.419678
9037.159147	0.084873	0.367426	1536.060059
9037.160077	0.084928	0.367426	1615.043091
9037.160974	0.084895	0.367426	1691.193970
9037.161877	0.084869	0.367426	1767.831055
9037.162769	0.084851	0.367426	1843.518188
9038.200305	1.208437	0.355973	570.382446
9038.201214	0.628143	0.355973	1141.364746
9038.202152	0.086598	0.355973	1222.593628
9038.203101	0.084833	0.355973	1303.099976
9038.204023	0.084939	0.355973	1381.413696
9038.204909	0.084884	0.355973	1456.620972
9038.205842	0.084847	0.355973	1535.783569
9038.206782	0.084833	0.355973	1615.526367
9038.207695	0.084891	0.355973	1693.032227
9038.208590	0.084851	0.355973	1768.973877
9038.209545	0.084917	0.355973	1850.069580
9038.210489	0.084888	0.355973	1930.203613
9039.220175	1.162826	0.367583	506.992096
9039.221125	0.661439	0.367583	1135.359375
9039.222035	0.086635	0.367583	1214.196777
9039.222946	0.084880	0.367583	1291.522827
9039.223846	0.084943	0.367583	1367.971191
9039.224798	0.084932	0.367583	1448.826172
9039.225714	0.084888	0.367583	1526.583252
9039.226634	0.084858	0.367583	1604.652954
9039.227522	0.084891	0.367583	1680.036499
9039.228482	0.084921	0.367583	1761.560303
9039.229402	0.084928	0.367583	1839.694092
9039.230292	0.084932	0.367583	1915.283203
9040.268760	1.166532	0.356147	520.273254
9040.269663	0.678102	0.356147	1132.599121
9040.270609	0.087821	0.356147	1215.677856
9040.271522	0.084961	0.356147	1293.247192
9040.272445	0.085005	0.356147	1371.706665
9040.273343	0.084935	0.356147	1447.978516
9040.274300	0.084979	0.356147	1529.303711
9040.275210	0.084946	0.356147	1606.604858
9040.276100	0.084888	0.356147	1682.154907
9040.277013	0.084884	0.356147	1759.654053
9040.277954	0.084858	0.356147	1839.505859
9040.278848	0.084950	0.356147	1915.451172
9041.287648	1.187413	0.367172	539.085632
9041.288551	0.664277	0.367172	1138.928101
9041.289485	0.087759	0.367172	1220.894775
9041.290395	0.085009	0.367172	1298.252563
9041.291308	0.084895	0.367172	1375.761719
9041.292197	0.084928	0.367172	1451.262695
9041.293130	0.085027	0.367172	1530.592773
9041.294038	0.084987	0.367172	1607.760620
9041.294945	0.084895	0.367172	1684.760376
9041.295832	0.084954	0.367172	1760.114258
9041.296778	0.085009	0.367172	1840.532349
9041.297678	0.084932	0.367172	1916.970825
9042.336215	1.162438	0.357388	518.447266
9042.337118	0.686891	0.357388	1138.709717
9042.338007	0.088052	0.357388	1216.987671
9042.338964	0.084792	0.357388	1298.134033
9042.339905	0.084913	0.357388	1378.037476
9042.340806	0.085012	0.357388	1454.633423
9042.341723	0.084924	0.357388	1532.509033
9042.342660	0.084888	0.357388	1612.048828
9042.343581	0.084972	0.357388	1690.307983
9042.344475	0.084910	0.357388	1766.217285
9042.345403	0.084899	0.357388	1845.003296
9042.346333	0.084917	0.357388	1923.976074
9043.355123	1.181737	0.367265	566.052063
9043.356029	0.631945	0.367265	1138.593872
9043.356917	0.087220	0.367265	1216.045654
9043.357871	0.084979	0.367265	1297.115845
9043.358796	0.084913	0.367265	1375.660645
9043.359694	0.085012	0.367265	1452.001587
9043.360624	0.084957	0.367265	1531.011841
9043.361542	0.084902	0.367265	1608.952148
9043.362465	0.084972	0.367265	1687.381226
9043.363357	0.085016	0.367265	1763.215332
9043.364309	0.084932	0.367265	1844.070312
9043.365217	0.084910	0.367265	1921.168335
9044.404694	1.165906	0.357424	516.496216
9044.405589	0.680933	0.357424	1125.930908
9044.406538	0.086810	0.357424	1208.313843
9044.407455	0.084943	0.357424	1286.206177
9044.408351	0.084946	0.357424	1362.318115
9044.409283	0.084990	0.357424	1441.529053
9044.410189	0.085012	0.357424	1518.550049
9044.411092	0.084858	0.357424	1595.177246
9044.411982	0.084961	0.357424	1670.792480
9044.412903	0.084979	0.357424	1749.058350
9044.413809	0.085071	0.357424	1826.132446
9044.414710	0.085042	0.357424	1902.754883
9045.423576	1.176790	0.370632	534.262451
9045.424482	0.661626	0.370632	1133.695557
9045.425419	0.087510	0.370632	1215.692261
9045.426361	0.084917	0.370632	1295.684082
9045.427273	0.084935	0.370632	1373.145020
9045.428160	0.084906	0.370632	1448.456665
9045.429112	0.084888	0.370632	1529.269775
9045.430047	0.084891	0.370632	1608.643188
9045.430947	0.084994	0.370632	1685.137695
9045.431864	0.084961	0.370632	1763.046875
9045.432802	0.084902	0.370632	1842.685303
9045.433724	0.084932	0.370632	1920.992310
9046.472146	1.169044	0.358600	510.872345
9046.473082	0.633087	0.358600	1103.441895
9046.473982	0.087184	0.358600	1181.907349
9046.474942	0.084825	0.358600	1263.339722
9046.475886	0.084862	0.358600	1343.449463
9046.476787	0.084877	0.358600	1419.923340
9046.477716	0.084921	0.358600	1498.814575
9046.478655	0.084840	0.358600	1578.479370
9046.479578	0.085016	0.358600	1656.948975
9046.480467	0.084921	0.358600	1732.443481
9046.481417	0.084866	0.358600	1813.065918
9046.482345	0.084884	0.358600	1891.838257
9047.493125	1.182480	0.369899	586.510315
9047.494065	0.557574	0.369899	1110.630371
9047.494965	0.086312	0.369899	1188.311401
9047.495855	0.084939	0.369899	1263.907104
9047.496807	0.084950	0.369899	1344.779419
9047.497714	0.084932	0.369899	1421.812378
9047.498616	0.084891	0.369899	1498.384399
9047.499511	0.084880	0.369899	1574.352295
9047.500473	0.085009	0.369899	1656.130493
9047.501379	0.084921	0.369899	1733.068604
9047.502273	0.084840	0.369899	1808.915649
9047.503211	0.084965	0.369899	1888.612427
9048.538568	1.172362	0.359152	512.322205
9048.539545	0.578903	0.359152	1077.910034
9048.540459	0.086433	0.359152	1156.909912
9048.541348	0.084895	0.359152	1232.381592
9048.542283	0.085001	0.359152	1311.857788
9048.543179	0.084983	0.359152	1388.002441
9048.544081	0.084917	0.359152	1464.597534
9048.544973	0.084983	0.359152	1540.402344
9048.545910	0.085027	0.359152	1620.072510
9048.546818	0.084976	0.359152	1697.230347
9048.547727	0.084979	0.359152	1774.476440
9048.548616	0.084921	0.359152	1849.970947
9049.561597	1.188889	0.372353	577.800110
9049.562529	0.577167	0.372353	1115.719482
9049.563417	0.086426	0.372353	1192.465576
9049.564337	0.084825	0.372353	1270.505005
9049.565277	0.084855	0.372353	1350.268433
9049.566186	0.084906	0.372353	1427.447998
9049.567082	0.084921	0.372353	1503.536865
9049.568034	0.084943	0.372353	1584.402222
9049.568973	0.084946	0.372353	1664.166748
9049.569869	0.084939	0.372353	1740.272095
9049.570790	0.084961	0.372353	1818.521118
9049.571729	0.084811	0.372353	1898.158447
9050.606027	1.161196	0.360638	512.087524
9050.607024	0.558724	0.360638	1069.135742
9050.607925	0.085972	0.360638	1146.596191
9050.608841	0.084873	0.360638	1224.339844
9050.609735	0.084822	0.360638	1300.170532
9050.610687	0.084935	0.360638	1381.028931
9050.611603	0.084840	0.360638	1458.742432
9050.612495	0.084979	0.360638	1534.543945
9050.613425	0.084932	0.360638	1613.530396
9050.614345	0.084932	0.360638	1691.667480
9050.615264	0.084968	0.360638	1769.753296
9050.616154	0.084932	0.360638	1845.342407
9051.630037	1.175625	0.370471	526.679993
9051.630945	0.672319	0.370471	1137.145996
9051.631833	0.087909	0.370471	1215.209106
9051.632804	0.084950	0.370471	1297.695557
9051.633712	0.084968	0.370471	1374.846680
9051.634603	0.084910	0.370471	1450.501221
9051.635533	0.085016	0.370471	1529.565918
9051.636445	0.084957	0.370471	1607.046997
9051.637345	0.084906	0.370471	1683.462402
9051.638236	0.085016	0.370471	1759.211548
9051.639167	0.084957	0.370471	1838.306763
9051.640077	0.084943	0.370471	1915.604492
9052.673482	1.163445	0.360908	510.752289
9052.674420	0.672825	0.360908	1141.861816
9052.675377	0.086396	0.360908	1224.543213
9052.676292	0.084873	0.360908	1302.202026
9052.677188	0.084946	0.360908	1378.313965
9052.678129	0.084906	0.360908	1458.210571
9052.679062	0.084921	0.360908	1537.441528
9052.679983	0.084917	0.360908	1615.650024
9052.680881	0.084899	0.360908	1691.889038
9052.681825	0.084891	0.360908	1772.026489
9052.682750	0.084855	0.360908	1850.517090
9052.683650	0.084895	0.360908	1926.922607
9053.699534	1.165199	0.369980	516.183105
9053.700497	0.581298	0.369980	1075.972656
9053.701450	0.085851	0.369980	1157.788452
9053.702375	0.084921	0.369980	1236.340088
9053.703263	0.084880	0.369980	1311.713867
9053.704209	0.084880	0.369980	1392.010742
9053.705142	0.084899	0.369980	1471.221191
9053.706036	0.084880	0.369980	1547.104248
9053.706951	0.084921	0.369980	1624.806641
9053.707887	0.084855	0.369980	1704.230713
9053.708802	0.084899	0.369980	1781.912964
9053.709700	0.084906	0.369980	1858.158569
9054.739940	1.190229	0.363950	540.364136
9054.740852	0.666299	0.363950	1148.028564
9054.741737	0.087722	0.363950	1225.662720
9054.742695	0.084917	0.363950	1307.013184
9054.743599	0.084965	0.363950	1383.821167
9054.744518	0.084880	0.363950	1461.826172
9054.745405	0.084946	0.363950	1537.173584
9054.746344	0.084895	0.363950	1616.890015
9054.747247	0.084891	0.363950	1693.546875
9054.748142	0.084954	0.363950	1769.580322
9054.749072	0.085034	0.363950	1848.662109
9054.749974	0.084939	0.363950	1925.277100
9055.768056	1.176456	0.366516	569.404846
9055.768979	0.609089	0.366516	1131.594360
9055.769869	0.086799	0.366516	1208.845703
9055.770757	0.084910	0.366516	1284.245483
9055.771689	0.084990	0.366516	1363.456421
9055.772599	0.084983	0.366516	1440.790894
9055.773505	0.084965	0.366516	1517.768799
9055.774396	0.084965	0.366516	1593.472290
9055.775337	0.084983	0.366516	1673.441162
9055.776245	0.084822	0.366516	1750.459351
9055.777137	0.084972	0.366516	1826.254272
9055.778071	0.084954	0.366516	1905.600952
9056.807415	1.208137	0.364880	570.240723
9056.808325	0.623357	0.364880	1137.495605
9056.809215	0.086953	0.364880	1214.883911
9056.810123	0.084858	0.364880	1291.935303
9056.811070	0.084932	0.364880	1372.365601
9056.812010	0.084957	0.364880	1452.225464
9056.812912	0.084939	0.364880	1528.840454
9056.813833	0.084954	0.364880	1607.082764
9056.814775	0.084917	0.364880	1687.074585
9056.815694	0.084935	0.364880	1765.130127
9056.816581	0.084950	0.364880	1840.480713
9056.817524	0.084880	0.364880	1920.522949
9057.835521	1.195280	0.366866	588.077576
9057.836444	0.574838	0.366866	1118.652710
9057.837367	0.086093	0.366866	1198.116089
9057.838266	0.084935	0.366866	1274.472900
9057.839219	0.084968	0.366866	1355.447632
9057.840132	0.084950	0.366866	1433.006958
9057.841023	0.084987	0.366866	1508.729980
9057.841930	0.084906	0.366866	1585.739746
9057.842863	0.084921	0.366866	1664.970703
9057.843761	0.084866	0.366866	1741.180176
9057.844647	0.084943	0.366866	1816.439331
9057.845587	0.085031	0.366866	1896.368042
9058.875862	1.173069	0.369541	527.880981
9058.876769	0.670693	0.369541	1136.199829
9058.877715	0.087631	0.369541	1219.098389
9058.878630	0.084954	0.369541	1296.830933
9058.879533	0.084891	0.369541	1373.487793
9058.880428	0.084935	0.369541	1449.504883
9058.881380	0.084994	0.369541	1530.419067
9058.882278	0.084943	0.369541	1606.697510
9058.883174	0.084895	0.369541	1682.763428
9058.884064	0.084891	0.369541	1758.316772
9058.885000	0.085016	0.369541	1837.891602
9058.885913	0.084932	0.369541	1915.434204
9059.902925	1.162603	0.368058	511.545105
9059.903910	0.589812	0.368058	1092.510010
9059.904835	0.086104	0.368058	1172.155762
9059.905729	0.084888	0.368058	1248.045410
9059.906663	0.084910	0.368058	1327.351074
9059.907604	0.084932	0.368058	1407.271729
9059.908515	0.084983	0.368058	1484.691162
9059.909413	0.084950	0.368058	1560.976196
9059.910345	0.084943	0.368058	1640.142700
9059.911281	0.084917	0.368058	1719.625000
9059.912188	0.084979	0.368058	1796.701172
9059.913095	0.084891	0.368058	1873.697632
9060.944337	1.166418	0.368324	517.889771
9060.945232	0.691194	0.368324	1136.508301
9060.946188	0.086986	0.368324	1219.666992
9060.947108	0.084880	0.368324	1297.756958
9060.947995	0.084939	0.368324	1373.097778
9060.948944	0.084932	0.368324	1453.697876
9060.949848	0.084888	0.368324	1530.436401
9060.950761	0.084811	0.368324	1607.868652
9060.951657	0.084921	0.368324	1683.957520
9060.952616	0.084869	0.368324	1765.347290
9060.953526	0.084913	0.368324	1842.618408
9060.954444	0.084939	0.368324	1920.592407
9061.969368	1.163976	0.366737	517.969238
9061.970260	0.697321	0.366737	1139.979126
9061.971198	0.087100	0.366737	1221.678589
9061.972111	0.084950	0.366737	1299.237915
9061.973021	0.084950	0.366737	1376.542358
9061.973913	0.084924	0.366737	1452.294800
9061.974867	0.084961	0.366737	1533.347534
9061.975769	0.084899	0.366737	1609.926147
9061.976664	0.084880	0.366737	1685.894043
9061.977602	0.084976	0.366737	1765.601196
9061.978501	0.084913	0.366737	1841.938232
9061.979396	0.084932	0.366737	1917.952026
9063.013859	1.190262	0.369839	545.140198
9063.014794	0.603816	0.369839	1109.708008
9063.015690	0.086675	0.369839	1187.368652
9063.016615	0.084877	0.369839	1265.879639
9063.017562	0.084902	0.369839	1346.282104
9063.018472	0.084895	0.369839	1423.536621
9063.019362	0.084858	0.369839	1499.060547
9063.020313	0.084880	0.369839	1579.781738
9063.021246	0.084913	0.369839	1659.005859
9063.022145	0.084822	0.369839	1735.260620
9063.023068	0.084851	0.369839	1813.578125
9063.024009	0.084884	0.369839	1893.453979
9064.035804	1.167037	0.368361	522.832764
9064.036715	0.670734	0.368361	1133.871094
9064.037603	0.087557	0.368361	1211.622070
9064.038536	0.084917	0.368361	1290.849609
9064.039463	0.084866	0.368361	1369.520142
9064.040380	0.084858	0.368361	1447.335327
9064.041271	0.084880	0.368361	1522.963745
9064.042211	0.084836	0.368361	1602.709961
9064.043123	0.084855	0.368361	1680.097534
9064.044039	0.084818	0.368361	1757.790894
9064.044934	0.084873	0.368361	1833.752319
9064.045870	0.084803	0.368361	1913.128418
9065.083341	1.155886	0.366983	502.810486
9065.084279	0.668287	0.366983	1129.664062
9065.085206	0.086653	0.366983	1209.991211
9065.086110	0.084906	0.366983	1286.746216
9065.086997	0.084888	0.366983	1362.041626
9065.087953	0.084965	0.366983	1443.267822
9065.088868	0.084899	0.366983	1520.950073
9065.089766	0.084858	0.366983	1597.152954
9065.090652	0.084939	0.366983	1672.408936
9065.091600	0.085005	0.366983	1752.993530
9065.092508	0.084928	0.366983	1830.108154
9065.093399	0.084983	0.366983	1905.827881
9066.103292	1.184502	0.371543	566.191956
9066.104214	0.613118	0.371543	1131.486328
9066.105105	0.086741	0.371543	1208.772339
9066.106029	0.084877	0.371543	1287.198364
9066.106966	0.084906	0.371543	1366.755249
9066.107889	0.084855	0.371543	1445.076172
9066.108786	0.084939	0.371543	1521.266479
9066.109720	0.084932	0.371543	1600.592651
9066.110642	0.084899	0.371543	1678.869263
9066.111559	0.084873	0.371543	1756.697876
9066.112443	0.084829	0.371543	1831.686768
9066.113393	0.084917	0.371543	1912.357910
9067.152866	1.179221	0.366838	530.649597
9067.153764	0.679189	0.366838	1140.561768
9067.154654	0.087836	0.366838	1218.735596
9067.155620	0.084796	0.366838	1300.648682
9067.156540	0.084803	0.366838	1378.667847
9067.157426	0.084840	0.366838	1453.836182
9067.158362	0.084946	0.366838	1533.345947
9067.159280	0.084847	0.366838	1611.235840
9067.160191	0.084847	0.366838	1688.531860
9067.161090	0.084833	0.366838	1764.796509
9067.162039	0.084818	0.366838	1845.288940
9067.162952	0.084888	0.366838	1922.791382
9068.170741	1.201703	0.372816	579.220825
9068.171669	0.588303	0.372816	1125.166260
9068.172568	0.086495	0.372816	1202.925537
9068.173458	0.084855	0.372816	1278.446289
9068.174412	0.084954	0.372816	1359.492065
9068.175309	0.084888	0.372816	1435.636353
9068.176228	0.084844	0.372816	1513.607788
9068.177123	0.084869	0.372816	1589.565918
9068.178066	0.084910	0.372816	1669.635742
9068.178969	0.084825	0.372816	1746.233154
9068.179855	0.084891	0.372816	1821.446899
9068.180787	0.084935	0.372816	1900.606567
9069.220341	1.221914	0.366314	585.296814
9069.221266	0.590764	0.366314	1131.753662
9069.222173	0.086378	0.366314	1210.098633
9069.223065	0.084873	0.366314	1285.805420
9069.224019	0.084950	0.366314	1366.847656
9069.224924	0.084913	0.366314	1443.694214
9069.225829	0.084811	0.366314	1520.447998
9069.226755	0.084924	0.366314	1599.087891
9069.227651	0.084998	0.366314	1675.245728
9069.228547	0.084877	0.366314	1751.295288
9069.229434	0.084869	0.366314	1826.574463
9069.230368	0.084891	0.366314	1905.863037
9070.237124	1.152806	0.377114	499.165161
9070.238086	0.641722	0.377114	1116.502075
9070.239000	0.086697	0.377114	1195.742920
9070.239926	0.084825	0.377114	1274.291260
9070.240816	0.084939	0.377114	1349.886963
9070.241774	0.084899	0.377114	1431.219849
9070.242673	0.084833	0.377114	1507.484497
9070.243566	0.084917	0.377114	1583.315430
9070.244474	0.084917	0.377114	1660.420044
9070.245415	0.084858	0.377114	1740.271851
9070.246339	0.084935	0.377114	1818.752075
9070.247232	0.084888	0.377114	1894.556763
9071.288785	1.168520	0.366701	518.823059
9071.289684	0.692080	0.366701	1141.003052
9071.290642	0.086774	0.366701	1224.132202
9071.291545	0.084840	0.366701	1300.742798
9071.292447	0.084873	0.366701	1377.298340
9071.293333	0.084917	0.366701	1452.534790
9071.294282	0.084873	0.366701	1533.079346
9071.295181	0.084822	0.366701	1609.334106
9071.296070	0.084825	0.366701	1684.743896
9071.296998	0.084899	0.366701	1763.529907
9071.297910	0.084888	0.366701	1840.947510
9071.298809	0.084785	0.366701	1917.169312
9072.306673	1.200655	0.377940	560.706116
9072.307577	0.637866	0.377940	1137.337158
9072.308492	0.087173	0.377940	1217.100342
9072.309434	0.084866	0.377940	1297.043823
9072.310370	0.084833	0.377940	1376.447266
9072.311285	0.084932	0.377940	1454.159668
9072.312174	0.084825	0.377940	1529.569458
9072.313123	0.084877	0.377940	1610.117432
9072.314070	0.084899	0.377940	1690.516479
9072.314968	0.084814	0.377940	1766.679810
9072.315901	0.084895	0.377940	1845.886841
9072.316839	0.084891	0.377940	1925.514893
9073.356272	1.203798	0.365811	571.803833
9073.357174	0.636995	0.365811	1146.373047
9073.358102	0.086627	0.365811	1226.763062
9073.359050	0.084840	0.365811	1307.191406
9073.359974	0.084906	0.365811	1385.644531
9073.360872	0.084968	0.365811	1461.946045
9073.361821	0.084899	0.365811	1542.514893
9073.362758	0.084880	0.365811	1622.047852
9073.363653	0.084921	0.365811	1698.051880
9073.364578	0.084807	0.365811	1776.498535
9073.365509	0.084913	0.365811	1855.552856
9073.366426	0.084921	0.365811	1933.425049
9074.375128	1.178020	0.378117	526.574951
9074.376025	0.688912	0.378117	1144.529297
9074.376974	0.087019	0.378117	1227.110352
9074.377883	0.084924	0.378117	1304.306519
9074.378778	0.084935	0.378117	1380.323608
9074.379668	0.084965	0.378117	1455.942139
9074.380621	0.084957	0.378117	1536.906372
9074.381517	0.084796	0.378117	1612.883667
9074.382410	0.084855	0.378117	1688.658936
9074.383346	0.084950	0.378117	1768.172119
9074.384253	0.084910	0.378117	1845.185181
9074.385156	0.084884	0.378117	1921.835449
9075.423711	1.173219	0.365456	526.775391
9075.424611	0.677318	0.365456	1136.361694
9075.425537	0.087777	0.365456	1217.643311
9075.426479	0.084880	0.365456	1297.600586
9075.427398	0.084961	0.365456	1375.679687
9075.428288	0.084807	0.365456	1451.158081
9075.429233	0.084976	0.365456	1531.459961
9075.430165	0.084825	0.365456	1610.517212
9075.431068	0.084884	0.365456	1687.167480
9075.431991	0.084946	0.365456	1765.572876
9075.432921	0.084888	0.365456	1844.518433
9075.433859	0.084917	0.365456	1924.170532
9076.443607	1.169528	0.379580	515.761658
9076.444527	0.673143	0.379580	1135.053467
9076.445469	0.086569	0.379580	1216.601074
9076.446392	0.084862	0.379580	1294.928711
9076.447283	0.084910	0.379580	1370.583252
9076.448207	0.084884	0.379580	1449.016113
9076.449146	0.084954	0.379580	1528.787598
9076.450056	0.084873	0.379580	1606.022095
9076.450950	0.084840	0.379580	1681.869141
9076.451892	0.084902	0.379580	1761.847168
9076.452829	0.084829	0.379580	1841.332031
9076.453726	0.084880	0.379580	1917.469727
9077.490129	1.173058	0.365239	520.837708
9077.491108	0.569366	0.365239	1078.247559
9077.492039	0.086005	0.365239	1158.317871
9077.492928	0.084884	0.365239	1233.779785
9077.493840	0.084895	0.365239	1311.204102
9077.494770	0.084891	0.365239	1390.153076
9077.495687	0.084851	0.365239	1467.961548
9077.496581	0.084913	0.365239	1543.874023
9077.497520	0.084932	0.365239	1623.624878
9077.498427	0.084844	0.365239	1700.578125
9077.499340	0.084917	0.365239	1778.107300
9077.500227	0.084844	0.365239	1853.363647
9078.512078	1.174720	0.378999	522.750610
9078.513053	0.563965	0.378999	1072.616333
9078.513970	0.086155	0.378999	1151.620239
9078.514873	0.084844	0.378999	1228.234131
9078.515809	0.084836	0.378999	1307.640991
9078.516712	0.084906	0.378999	1384.311157
9078.517610	0.084873	0.378999	1460.527100
9078.518499	0.084855	0.378999	1535.963013
9078.519442	0.084961	0.378999	1616.081177
9078.520347	0.084921	0.378999	1692.934326
9078.521245	0.084855	0.378999	1769.133911
9078.522131	0.084917	0.378999	1844.370361
9079.557582	1.171091	0.367640	516.451233
9079.558552	0.590511	0.367640	1089.247314
9079.559471	0.086129	0.367640	1168.400024
9079.560391	0.084836	0.367640	1246.449585
9079.561282	0.084855	0.367640	1322.055176
9079.562237	0.084862	0.367640	1403.098389
9079.563174	0.084902	0.367640	1482.651855
9079.564074	0.084946	0.367640	1559.103516
9079.564990	0.084833	0.367640	1636.810303
9079.565929	0.084862	0.367640	1716.495728
9079.566852	0.084899	0.367640	1794.857178
9079.567738	0.084906	0.367640	1870.083862
9080.579525	1.153290	0.380534	499.374481
9080.580492	0.622471	0.380534	1101.303589
9080.581408	0.086243	0.380534	1180.301880
9080.582333	0.084891	0.380534	1258.826416
9080.583222	0.084807	0.380534	1334.219971
9080.584174	0.084840	0.380534	1414.987793
9080.585099	0.084866	0.380534	1493.488525
9080.585992	0.084877	0.380534	1569.283447
9080.586927	0.084950	0.380534	1648.711670
9080.587835	0.084891	0.380534	1725.792969
9080.588762	0.084840	0.380534	1804.439697
9080.589654	0.084906	0.380534	1880.175903
9081.626118	1.216937	0.366931	606.034729
9081.627056	0.543116	0.366931	1115.478027
9081.627959	0.086034	0.366931	1193.166626
9081.628849	0.084910	0.366931	1268.736206
9081.629797	0.085031	0.366931	1349.345093
9081.630694	0.084796	0.366931	1425.407227
9081.631581	0.084979	0.366931	1500.783813
9081.632499	0.084895	0.366931	1578.717407
9081.633414	0.084939	0.366931	1656.436523
9081.634317	0.084891	0.366931	1733.093384
9081.635207	0.084822	0.366931	1808.584717
9081.636144	0.084957	0.366931	1888.189697
9082.648046	1.185626	0.381251	565.543701
9082.649006	0.574636	0.381251	1117.194458
9082.649924	0.085902	0.381251	1196.052612
9082.650813	0.084858	0.381251	1271.491699
9082.651745	0.084851	0.381251	1350.572876
9082.652688	0.084932	0.381251	1430.663452
9082.653602	0.084957	0.381251	1508.314453
9082.654497	0.084913	0.381251	1584.311890
9082.655432	0.085016	0.381251	1663.801758
9082.656335	0.084998	0.381251	1740.554565
9082.657240	0.084943	0.381251	1817.427612
9082.658128	0.084924	0.381251	1892.840454
9083.694577	1.202113	0.369094	564.993103
9083.695512	0.592709	0.369094	1119.175781
9083.696402	0.086627	0.369094	1196.273926
9083.697333	0.084895	0.369094	1275.311157
9083.698270	0.084913	0.369094	1354.875000
9083.699175	0.084939	0.369094	1431.744751
9083.700072	0.084946	0.369094	1507.941528
9083.701012	0.084913	0.369094	1587.760010
9083.701948	0.084829	0.369094	1667.160034
9083.702851	0.084932	0.369094	1743.853271
9083.703768	0.084814	0.369094	1821.628174
9083.704702	0.084913	0.369094	1900.937256
9084.715461	1.153228	0.381175	500.500763
9084.716434	0.584930	0.381175	1069.638062
9084.717344	0.086327	0.381175	1148.195557
9084.718271	0.084939	0.381175	1226.933960
9084.719163	0.084924	0.381175	1302.686401
9084.720133	0.084888	0.381175	1385.027466
9084.721037	0.084877	0.381175	1461.755981
9084.721932	0.084961	0.381175	1537.796021
9084.722878	0.084983	0.381175	1618.189819
9084.723785	0.084858	0.381175	1695.156372
9084.724706	0.084924	0.381175	1773.371704
9084.725592	0.084932	0.381175	1848.621094
9085.764040	1.160940	0.367378	503.847931
9085.764977	0.677084	0.367378	1138.275391
9085.765893	0.086763	0.367378	1217.750000
9085.766798	0.084866	0.367378	1294.553467
9085.767696	0.084917	0.367378	1370.808960
9085.768629	0.084928	0.367378	1450.046753
9085.769530	0.085016	0.367378	1526.645996
9085.770429	0.084939	0.367378	1603.006104
9085.771316	0.084935	0.367378	1678.343750
9085.772268	0.085031	0.367378	1759.292847
9085.773175	0.084939	0.367378	1836.332520
9085.774067	0.084965	0.367378	1912.120972
9086.781909	1.167642	0.381602	519.600464
9086.782812	0.685529	0.381602	1138.632812
9086.783697	0.088000	0.381602	1216.513184
9086.784659	0.084899	0.381602	1298.185669
9086.785601	0.084899	0.381602	1378.160278
9086.786494	0.085012	0.381602	1454.076172
9086.787413	0.084943	0.381602	1532.138428
9086.788351	0.084957	0.381602	1611.828369
9086.789275	0.084906	0.381602	1690.281494
9086.790174	0.084935	0.381602	1766.638306
9086.791126	0.084921	0.381602	1847.482788
9086.792069	0.084921	0.381602	1927.562988
9087.831503	1.161669	0.367909	509.972595
9087.832400	0.696885	0.367909	1135.078247
9087.833354	0.086624	0.367909	1217.717041
9087.834284	0.084932	0.367909	1296.703491
9087.835173	0.084946	0.367909	1372.220703
9087.836116	0.084902	0.367909	1452.283569
9087.837021	0.084917	0.367909	1529.133423
9087.837932	0.084917	0.367909	1606.492798
9087.838826	0.084990	0.367909	1682.474121
9087.839769	0.084858	0.367909	1762.495605
9087.840682	0.084858	0.367909	1839.971313
9087.841609	0.084946	0.367909	1918.716553
9088.850377	1.159673	0.383012	506.777039
9088.851301	0.677000	0.383012	1132.324585
9088.852240	0.086473	0.383012	1213.523071
9088.853147	0.084891	0.383012	1290.519531
9088.854046	0.084961	0.383012	1366.899414
9088.854980	0.084972	0.383012	1446.263184
9088.855887	0.084910	0.383012	1523.276245
9088.856799	0.084910	0.383012	1600.713867
9088.857687	0.084954	0.383012	1676.152710
9088.858629	0.084895	0.383012	1756.123779
9088.859533	0.084895	0.383012	1832.868896
9088.860426	0.084961	0.383012	1908.739014
9089.899982	1.174937	0.373037	520.496887
9089.900965	0.562907	0.373037	1073.833984
9089.901889	0.085946	0.373037	1153.248169
9089.902782	0.084910	0.373037	1229.072510
9089.903700	0.084771	0.373037	1306.891846
9089.904640	0.084840	0.373037	1386.641479
9089.905561	0.084902	0.373037	1464.836548
9089.906459	0.084836	0.373037	1541.019653
9089.907406	0.084840	0.373037	1621.363281
9089.908346	0.084910	0.373037	1701.178345
9089.909260	0.084954	0.373037	1778.825928
9089.910149	0.084880	0.373037	1854.284546
9090.917830	1.154103	0.380224	500.880554
9090.918781	0.665002	0.380224	1133.297852
9090.919696	0.086499	0.380224	1212.444458
9090.920623	0.084968	0.380224	1291.210083
9090.921513	0.084965	0.380224	1366.828613
9090.922467	0.084932	0.380224	1447.853394
9090.923382	0.084913	0.380224	1525.549072
9090.924295	0.084921	0.380224	1603.081665
9090.925184	0.084899	0.380224	1678.556641
9090.926130	0.084921	0.380224	1758.891602
9090.927028	0.084796	0.380224	1835.038574
9090.927940	0.084899	0.380224	1912.466187
9091.967434	1.165844	0.374012	510.639496
9091.968404	0.582766	0.374012	1075.922607
9091.969317	0.086312	0.374012	1154.725708
9091.970216	0.084910	0.374012	1231.059448
9091.971151	0.084902	0.374012	1310.443115
9091.972056	0.084957	0.374012	1387.329468
9091.972961	0.084880	0.374012	1464.146240
9091.973852	0.084913	0.374012	1539.804077
9091.974800	0.084987	0.374012	1620.371338
9091.975705	0.084910	0.374012	1697.214600
9091.976602	0.084866	0.374012	1773.339111
9091.977489	0.084855	0.374012	1848.605225
9092.986356	1.184487	0.377195	568.553955
9092.987305	0.562917	0.377195	1102.762695
9092.988237	0.085880	0.377195	1182.802979
9092.989128	0.084877	0.377195	1258.428101
9092.990050	0.084829	0.377195	1336.640503
9092.990966	0.084880	0.377195	1414.390869
9092.991894	0.084921	0.377195	1493.197266
9092.992796	0.084972	0.377195	1569.841919
9092.993722	0.084880	0.377195	1648.441162
9092.994656	0.084946	0.377195	1727.781006
9092.995574	0.084998	0.377195	1805.808716
9092.996466	0.084946	0.377195	1881.580811
9094.034897	1.169150	0.373758	514.426208
9094.035863	0.607372	0.373758	1101.147461
9094.036769	0.086609	0.373758	1179.615112
9094.037698	0.084957	0.373758	1258.540405
9094.038585	0.084921	0.373758	1333.864990
9094.039541	0.084895	0.373758	1415.024658
9094.040451	0.084928	0.373758	1492.309082
9094.041346	0.084965	0.373758	1568.352417
9094.042271	0.084979	0.373758	1646.958252
9094.043181	0.084891	0.373758	1724.209351
9094.044096	0.084862	0.373758	1801.858154
9094.044998	0.084913	0.373758	1878.449951
9095.054806	1.175457	0.376796	519.551819
9095.055734	0.661436	0.376796	1133.364014
9095.056629	0.087418	0.376796	1211.603271
9095.057567	0.084983	0.376796	1291.317261
9095.058477	0.084961	0.376796	1368.631714
9095.059381	0.084862	0.376796	1445.347046
9095.060270	0.084880	0.376796	1520.805664
9095.061228	0.085031	0.376796	1602.264893
9095.062135	0.084928	0.376796	1679.294556
9095.063036	0.084825	0.376796	1755.722290
9095.063924	0.084884	0.376796	1831.099365
9095.064862	0.084935	0.376796	1910.768677
9096.102344	1.153257	0.377287	503.973206
9096.103292	0.608968	0.377287	1081.275391
9096.104264	0.085858	0.377287	1164.729492
9096.105183	0.084906	0.377287	1242.758057
9096.106076	0.084862	0.377287	1318.539917
9096.107027	0.084939	0.377287	1399.316895
9096.107957	0.084877	0.377287	1478.252197
9096.108861	0.084869	0.377287	1554.974121
9096.109778	0.084880	0.377287	1632.809448
9096.110713	0.084880	0.377287	1712.172607
9096.111630	0.084913	0.377287	1790.038086
9096.112518	0.084928	0.377287	1865.454102
9097.124294	1.156875	0.374806	505.554382
9097.125288	0.547445	0.374806	1049.714844
9097.126200	0.085972	0.374806	1128.120972
9097.127092	0.084954	0.374806	1203.899658
9097.128007	0.084954	0.374806	1281.632202
9097.128938	0.084840	0.374806	1360.618286
9097.129833	0.084880	0.374806	1436.586182
9097.130721	0.084829	0.374806	1511.914429
9097.131663	0.084965	0.374806	1591.951050
9097.132571	0.084928	0.374806	1669.065674
9097.133490	0.084932	0.374806	1747.117798
9097.134386	0.084833	0.374806	1823.127930
9098.168786	1.169128	0.377134	520.262146
9098.169686	0.687012	0.377134	1138.572754
9098.170625	0.087883	0.377134	1221.095215
9098.171528	0.084968	0.377134	1297.821533
9098.172425	0.084869	0.377134	1373.949341
9098.173314	0.084862	0.377134	1449.391724
9098.174263	0.084965	0.377134	1530.023071
9098.175152	0.085009	0.377134	1605.595703
9098.176058	0.084924	0.377134	1682.537109
9098.176946	0.084954	0.377134	1757.975952
9098.177894	0.085027	0.377134	1838.581421
9098.178801	0.084932	0.377134	1915.614380
9099.193821	1.170915	0.375209	524.570129
9099.194713	0.683152	0.375209	1133.941650
9099.195688	0.086503	0.375209	1218.281738
9099.196616	0.084829	0.375209	1297.003174
9099.197507	0.084866	0.375209	1372.618530
9099.198444	0.084979	0.375209	1452.244141
9099.199359	0.084895	0.375209	1529.923096
9099.200276	0.084895	0.375209	1607.771851
9099.201176	0.084910	0.375209	1684.190552
9099.202111	0.084943	0.375209	1763.611938
9099.203027	0.084906	0.375209	1841.385864
9099.203954	0.084924	0.375209	1920.110718
9100.235236	1.189197	0.377541	550.598083
9100.236135	0.660736	0.377541	1144.599854
9100.237091	0.087294	0.377541	1228.052612
9100.237991	0.084921	0.377541	1304.481201
9100.238896	0.084844	0.377541	1381.264771
9100.239784	0.084968	0.377541	1456.716553
9100.240718	0.084994	0.377541	1536.100830
9100.241626	0.084913	0.377541	1613.202148
9100.242533	0.084877	0.377541	1690.185303
9100.243423	0.084888	0.377541	1765.735352
9100.244368	0.084957	0.377541	1846.020020
9100.245276	0.084972	0.377541	1923.174561
9101.262329	1.189325	0.376844	578.011963
9101.263272	0.556996	0.376844	1103.259033
9101.264195	0.085931	0.376844	1182.573730
9101.265091	0.084928	0.376844	1258.669189
9101.266036	0.084910	0.376844	1338.908813
9101.266971	0.084935	0.376844	1418.323364
9101.267873	0.084921	0.376844	1494.921753
9101.268785	0.084954	0.376844	1572.399414
9101.269721	0.085016	0.376844	1651.974243
9101.270662	0.084891	0.376844	1731.857056
9101.271557	0.084902	0.376844	1807.844604
9101.272484	0.084851	0.376844	1886.501587
9102.302694	1.190471	0.376055	553.569092
9102.303599	0.644436	0.376055	1136.783691
9102.304550	0.086891	0.376055	1219.416870
9102.305458	0.084866	0.376055	1296.474976
9102.306386	0.084913	0.376055	1375.274536
9102.307272	0.084899	0.376055	1450.494751
9102.308229	0.084921	0.376055	1531.763794
9102.309132	0.084829	0.376055	1608.364502
9102.310025	0.084935	0.376055	1684.211670
9102.310963	0.084994	0.376055	1763.935913
9102.311873	0.084928	0.376055	1841.220337
9102.312776	0.084844	0.376055	1917.834229
9103.330803	1.187139	0.378476	557.955200
9103.331707	0.633094	0.378476	1130.272705
9103.332641	0.087111	0.378476	1211.634033
9103.333590	0.084895	0.378476	1292.199463
9103.334509	0.084829	0.378476	1370.157349
9103.335395	0.084891	0.378476	1445.371094
9103.336345	0.084913	0.378476	1526.038818
9103.337274	0.084807	0.378476	1604.824585
9103.338181	0.084906	0.378476	1681.834351
9103.339092	0.084836	0.378476	1759.120361
9103.340019	0.084902	0.378476	1837.824829
9103.340956	0.084858	0.378476	1917.337158
9104.371201	1.191248	0.373908	588.476318
9104.372117	0.569282	0.373908	1109.938843
9104.373051	0.085928	0.373908	1190.195312
9104.373940	0.084862	0.373908	1265.637695
9104.374897	0.084869	0.373908	1346.857666
9104.375811	0.084873	0.373908	1424.431641
9104.376732	0.084895	0.373908	1502.619995
9104.377622	0.084862	0.373908	1578.147217
9104.378574	0.084990	0.373908	1659.057861
9104.379487	0.084880	0.373908	1736.553589
9104.380387	0.084884	0.373908	1812.949219
9104.381325	0.084928	0.373908	1892.611694
9105.398236	1.183389	0.379241	533.708313
9105.399137	0.675092	0.379241	1141.965820
9105.400093	0.087059	0.379241	1225.194580
9105.401000	0.085005	0.379241	1302.293945
9105.401897	0.084836	0.379241	1378.392212
9105.402785	0.084954	0.379241	1453.831055
9105.403713	0.084972	0.379241	1532.685059
9105.404629	0.084906	0.379241	1610.458984
9105.405537	0.084899	0.379241	1687.546997
9105.406425	0.084987	0.379241	1763.015137
9105.407379	0.084994	0.379241	1844.099365
9105.408280	0.084913	0.379241	1920.606323
9106.438647	1.229835	0.374206	594.010376
9106.439602	0.543911	0.374206	1113.445557
9106.440523	0.085968	0.374206	1192.622070
9106.441413	0.084880	0.374206	1268.165649
9106.442345	0.084924	0.374206	1347.315063
9106.443275	0.084858	0.374206	1426.233398
9106.444195	0.084899	0.374206	1504.340210
9106.445092	0.084946	0.374206	1580.536987
9106.446037	0.084943	0.374206	1660.807739
9106.446972	0.084899	0.374206	1740.187988
9106.447867	0.084862	0.374206	1816.139526
9106.448784	0.084939	0.374206	1894.028564
9107.465682	1.170322	0.380776	520.793396
9107.466577	0.691234	0.380776	1139.447998
9107.467528	0.086682	0.380776	1221.882690
9107.468445	0.084822	0.380776	1299.664307
9107.469375	0.084891	0.380776	1378.613281
9107.470270	0.084946	0.380776	1454.640259
9107.471224	0.084899	0.380776	1535.633545
9107.472128	0.084873	0.380776	1612.358765
9107.473048	0.084924	0.380776	1690.489136
9107.473936	0.084946	0.380776	1765.921387
9107.474881	0.084902	0.380776	1846.154053
9107.475799	0.084998	0.380776	1924.181763
9108.508111	1.163624	0.372679	513.158325
9108.509009	0.694607	0.372679	1136.915405
9108.509957	0.086814	0.372679	1219.215088
9108.510873	0.084983	0.372679	1297.059448
9108.511775	0.084924	0.372679	1373.661133
9108.512697	0.084968	0.372679	1452.001831
9108.513612	0.084968	0.372679	1529.747803
9108.514521	0.084899	0.372679	1606.920654
9108.515413	0.084932	0.372679	1682.679687
9108.516350	0.084994	0.372679	1762.318970
9108.517254	0.084924	0.372679	1839.090576
9108.518153	0.084968	0.372679	1915.477051
9109.533141	1.163170	0.383354	515.284363
9109.534048	0.676762	0.383354	1129.107056
9109.534966	0.087810	0.383354	1209.716675
9109.535902	0.084928	0.383354	1289.209229
9109.536821	0.084954	0.383354	1367.281616
9109.537715	0.084990	0.383354	1443.262939
9109.538659	0.084895	0.383354	1523.403809
9109.539595	0.084939	0.383354	1602.906738
9109.540485	0.085005	0.383354	1678.561035
9109.541402	0.084895	0.383354	1756.409790
9109.542324	0.084939	0.383354	1834.723511
9109.543257	0.084880	0.383354	1913.916870
9110.575572	1.170476	0.373235	525.543762
9110.576473	0.683104	0.373235	1141.020752
9110.577427	0.087426	0.373235	1224.424683
9110.578333	0.084866	0.373235	1301.312988
9110.579258	0.084935	0.373235	1379.878174
9110.580143	0.084939	0.373235	1455.049194
9110.581091	0.084869	0.373235	1535.505371
9110.582005	0.084921	0.373235	1613.122803
9110.582895	0.084987	0.373235	1688.760864
9110.583803	0.084961	0.373235	1765.905396
9110.584744	0.084932	0.373235	1845.826050
9110.585664	0.084990	0.373235	1924.017090
9111.600611	1.184663	0.382915	540.206421
9111.601513	0.665603	0.382915	1140.580322
9111.602402	0.087697	0.382915	1218.542480
9111.603357	0.084976	0.382915	1299.694214
9111.604259	0.084990	0.382915	1376.355469
9111.605156	0.084994	0.382915	1452.594971
9111.606047	0.084965	0.382915	1528.298462
9111.606993	0.085023	0.382915	1608.730469
9111.607899	0.084990	0.382915	1685.731567
9111.608789	0.084976	0.382915	1761.359863
9111.609725	0.085001	0.382915	1840.921021
9111.610635	0.084924	0.382915	1918.202148
9112.644046	1.165704	0.373122	516.406982
9112.644977	0.673462	0.373122	1143.400024
9112.645918	0.086986	0.373122	1225.253906
9112.646837	0.084924	0.373122	1303.299316
9112.647727	0.084906	0.373122	1378.865723
9112.648652	0.084891	0.373122	1457.390259
9112.649595	0.084968	0.373122	1537.515381
9112.650511	0.084924	0.373122	1615.306030
9112.651398	0.084917	0.373122	1690.627441
9112.652345	0.084965	0.373122	1771.088867
9112.653279	0.084825	0.373122	1850.315796
9112.654178	0.084928	0.373122	1926.666016
9113.667020	1.166052	0.384107	514.229004
9113.667989	0.609756	0.384107	1105.082397
9113.668919	0.086162	0.384107	1185.213135
9113.669824	0.084979	0.384107	1262.119385
9113.670745	0.084990	0.384107	1340.395386
9113.671682	0.084932	0.384107	1419.976318
9113.672600	0.084954	0.384107	1497.963745
9113.673488	0.084961	0.384107	1573.409058
9113.674434	0.084935	0.384107	1653.757812
9113.675364	0.084928	0.384107	1732.740845
9113.676289	0.084939	0.384107	1811.309326
9113.677180	0.084968	0.384107	1887.015991
9114.712522	1.156685	0.372824	505.471191
9114.713485	0.601501	0.372824	1084.717041
9114.714391	0.086667	0.372824	1163.237793
9114.715320	0.084954	0.372824	1242.159668
9114.716211	0.084965	0.372824	1317.863159
9114.717184	0.085042	0.372824	1400.608521
9114.718086	0.084921	0.372824	1477.206909
9114.718974	0.084910	0.372824	1552.606689
9114.719912	0.085071	0.372824	1632.403076
9114.720829	0.084902	0.372824	1710.258545
9114.721747	0.085027	0.372824	1788.313232
9114.722638	0.084965	0.372824	1864.016724
9115.735544	1.195931	0.386496	577.634888
9115.736474	0.575215	0.386496	1112.584717
9115.737381	0.086316	0.386496	1190.873291
9115.738270	0.084803	0.386496	1266.263550
9115.739220	0.085027	0.386496	1347.039062
9115.740124	0.084950	0.386496	1423.833862
9115.741020	0.084976	0.386496	1499.971924
9115.741933	0.084961	0.386496	1577.541260
9115.742855	0.084979	0.386496	1655.892090
9115.743768	0.084829	0.386496	1733.341064
9115.744665	0.084891	0.386496	1809.488647
9115.745590	0.084957	0.386496	1888.074097
9116.779980	1.165752	0.374741	514.096619
9116.780923	0.664091	0.374741	1140.333984
9116.781875	0.086169	0.374741	1222.367310
9116.782802	0.084811	0.374741	1300.986938
9116.783694	0.084873	0.374741	1376.693726
9116.784617	0.084888	0.374741	1455.045044
9116.785551	0.084880	0.374741	1534.323364
9116.786468	0.084968	0.374741	1612.239258
9116.787356	0.084906	0.374741	1687.635742
9116.788303	0.084866	0.374741	1768.003540
9116.789247	0.084932	0.374741	1848.178955
9116.790148	0.084858	0.374741	1924.636353
9117.803997	1.178331	0.386210	534.962402
9117.804898	0.674864	0.386210	1143.015381
9117.805784	0.087920	0.386210	1220.912476
9117.806745	0.084946	0.386210	1302.545898
9117.807639	0.084957	0.386210	1378.497681
9117.808528	0.084924	0.386210	1453.995361
9117.809458	0.084957	0.386210	1533.005615
9117.810365	0.084957	0.386210	1610.061890
9117.811289	0.084987	0.386210	1688.589478
9117.812185	0.084913	0.386210	1764.671875
9117.813134	0.085009	0.386210	1845.344971
9117.814039	0.084932	0.386210	1922.208130
9118.848524	1.198074	0.373787	605.027222
9118.849446	0.568180	0.373787	1128.889160
9118.850344	0.086411	0.373787	1206.486328
9118.851230	0.084899	0.373787	1281.706543
9118.852170	0.084961	0.373787	1361.569824
9118.853075	0.084899	0.373787	1438.403076
9118.853973	0.084935	0.373787	1514.674927
9118.854861	0.084917	0.373787	1590.081177
9118.855816	0.084994	0.373787	1671.250366
9118.856727	0.084891	0.373787	1748.586426
9118.857624	0.084965	0.373787	1824.799683
9118.858555	0.084983	0.373787	1903.918823
9119.871466	1.202358	0.384619	557.894348
9119.872388	0.624393	0.384619	1133.584961
9119.873276	0.087004	0.384619	1210.844849
9119.874205	0.084880	0.384619	1289.698730
9119.875151	0.084917	0.384619	1370.030151
9119.876064	0.084950	0.384619	1447.589478
9119.876950	0.084924	0.384619	1522.832397
9119.877894	0.084965	0.384619	1603.038940
9119.878831	0.084921	0.384619	1682.609619
9119.879723	0.084928	0.384619	1758.365356
9119.880650	0.084899	0.384619	1837.066406
9119.881576	0.084877	0.384619	1915.662231
9120.915981	1.206519	0.374270	606.878845
9120.916890	0.580254	0.374270	1134.329590
9120.917805	0.086111	0.374270	1213.120972
9120.918702	0.084913	0.374270	1289.288208
9120.919631	0.084946	0.374270	1368.203369
9120.920536	0.084917	0.374270	1445.053223
9120.921459	0.084946	0.374270	1523.458618
9120.922347	0.085005	0.374270	1598.942993
9120.923303	0.084888	0.374270	1680.095581
9120.924196	0.084877	0.374270	1755.890503
9120.925117	0.084932	0.374270	1834.112549
9120.926003	0.084935	0.374270	1909.365234
9121.939924	1.176482	0.385787	525.887390
9121.940831	0.677230	0.385787	1140.135254
9121.941784	0.086836	0.385787	1222.889893
9121.942683	0.085074	0.385787	1299.371826
9121.943584	0.084957	0.385787	1375.918335
9121.944472	0.084899	0.385787	1451.308350
9121.945404	0.085042	0.385787	1530.567017
9121.946317	0.084946	0.385787	1608.122925
9121.947217	0.084943	0.385787	1684.571289
9121.948154	0.085031	0.385787	1764.244873
9121.949063	0.085027	0.385787	1841.534302
9121.949966	0.084917	0.385787	1918.214355
9122.983419	1.215890	0.377352	589.706604
9122.984367	0.539169	0.377352	1100.838501
9122.985303	0.085726	0.377352	1181.078369
9122.986194	0.084957	0.377352	1256.775269
9122.987148	0.084855	0.377352	1337.726685
9122.988079	0.085034	0.377352	1416.893555
9122.988973	0.084954	0.377352	1492.842041
9122.989892	0.084910	0.377352	1570.874023
9122.990833	0.084891	0.377352	1650.756836
9122.991766	0.084990	0.377352	1730.052734
9122.992664	0.084950	0.377352	1806.337769
9122.993588	0.084906	0.377352	1884.790894
9124.008395	1.164261	0.385670	512.275024
9124.009381	0.571816	0.385670	1076.085937
9124.010276	0.086385	0.385670	1153.401001
9124.011163	0.084921	0.385670	1228.725586
9124.012098	0.085115	0.385670	1308.307861
9124.013014	0.084847	0.385670	1386.028076
9124.013927	0.084957	0.385670	1463.594116
9124.014822	0.084939	0.385670	1539.614502
9124.015798	0.085067	0.385670	1622.640015
9124.016708	0.085027	0.385670	1700.014404
9124.017628	0.084994	0.385670	1778.208740
9124.018519	0.085031	0.385670	1853.970947
9125.050825	1.167810	0.377549	512.668640
9125.051809	0.580946	0.377549	1084.319580
9125.052706	0.086525	0.377549	1161.932251
9125.053609	0.084961	0.377549	1238.651978
9125.054549	0.085031	0.377549	1318.580688
9125.055459	0.085038	0.377549	1395.965088
9125.056358	0.084979	0.377549	1472.361450
9125.057251	0.084987	0.377549	1548.254517
9125.058200	0.085009	0.377549	1628.927612
9125.059093	0.084976	0.377549	1704.810791
9125.059989	0.084921	0.377549	1780.899658
9125.060873	0.084994	0.377549	1856.034302
9126.076920	1.192603	0.385634	573.641785
9126.077854	0.569462	0.385634	1105.519043
9126.078751	0.086338	0.385634	1182.964111
9126.079677	0.084939	0.385634	1261.617554
9126.080619	0.084957	0.385634	1341.647339
9126.081544	0.084913	0.385634	1420.192139
9126.082435	0.084965	0.385634	1495.895630
9126.083379	0.084939	0.385634	1576.078003
9126.084312	0.084910	0.385634	1655.298706
9126.085208	0.084954	0.385634	1731.417114
9126.086126	0.084921	0.385634	1809.374268
9126.087063	0.084998	0.385634	1889.016968
9127.117271	1.167792	0.377928	518.499512
9127.118168	0.681665	0.377928	1129.953125
9127.119133	0.086528	0.377928	1213.453003
9127.120033	0.084932	0.377928	1289.891479
9127.120923	0.084928	0.377928	1365.477417
9127.121859	0.085034	0.377928	1445.069458
9127.122772	0.084979	0.377928	1522.655518
9127.123693	0.084913	0.377928	1600.860718
9127.124584	0.084910	0.377928	1676.515259
9127.125519	0.085005	0.377928	1755.994873
9127.126435	0.084983	0.377928	1833.839233
9127.127355	0.084979	0.377928	1912.020142
9128.145376	1.188534	0.383205	532.463196
9128.146283	0.670177	0.383205	1140.313721
9128.147168	0.087792	0.383205	1218.009399
9128.148131	0.085005	0.383205	1299.869141
9128.149037	0.084895	0.383205	1376.784058
9128.149929	0.084976	0.383205	1452.582275
9128.150862	0.085005	0.383205	1531.891846
9128.151773	0.084998	0.383205	1609.324585
9128.152671	0.084950	0.383205	1685.609619
9128.153559	0.084895	0.383205	1760.996338
9128.154509	0.085038	0.383205	1841.782227
9128.155404	0.084968	0.383205	1917.828857
9129.185737	1.159314	0.380748	505.460876
9129.186696	0.608331	0.380748	1088.850586
9129.187645	0.086261	0.380748	1170.712280
9129.188565	0.084910	0.380748	1248.829224
9129.189455	0.084921	0.380748	1324.408569
9129.190390	0.084866	0.380748	1403.758057
9129.191328	0.084888	0.380748	1483.382690
9129.192225	0.084932	0.380748	1559.566406
9129.193138	0.084902	0.380748	1637.082275
9129.194072	0.084877	0.380748	1716.357178
9129.194982	0.084858	0.380748	1793.578369
9129.195873	0.084935	0.380748	1869.255737
9130.212824	1.175325	0.383749	528.896118
9130.213724	0.683701	0.383749	1144.227173
9130.214613	0.087916	0.383749	1222.384766
9130.215571	0.084924	0.383749	1303.742310
9130.216477	0.084994	0.383749	1380.746826
9130.217370	0.084994	0.383749	1456.646362
9130.218296	0.084976	0.383749	1535.333740
9130.219210	0.084957	0.383749	1612.984741
9130.220123	0.084965	0.383749	1690.557373
9130.221015	0.084965	0.383749	1766.345825
9130.221958	0.084946	0.383749	1846.450195
9130.222857	0.084873	0.383749	1922.751099
